PE FL                   SPECTRUM    ASCII       PEDS        1.60        
  -1
0184F1~1.SP
19/01/24
10:25:36.00
19/01/24
10:25:36.00


548.500000
1









LS45
320.00
10.00
10.00
SCAN
1
16
100
100
0
600
0
1
0
1
7
ON
435 365 
0 0 0
#HDR
-1
-1
#GR
NM
INT 
0.00002384185791015625
0.0
230.000000
0.500000
638
8
531.413000
0.144000
#DATA
230.000000	0.144000   
230.500000	0.283000   
231.000000	0.365000   
231.500000	0.294000   
232.000000	0.145000   
232.500000	0.196000   
233.000000	0.298000   
233.500000	0.230000   
234.000000	0.285000   
234.500000	0.236000   
235.000000	0.290000   
235.500000	0.231000   
236.000000	0.219000   
236.500000	0.376000   
237.000000	0.296000   
237.500000	0.182000   
238.000000	0.263000   
238.500000	0.321000   
239.000000	0.165000   
239.500000	0.255000   
240.000000	0.332000   
240.500000	0.268000   
241.000000	0.363000   
241.500000	0.340000   
242.000000	0.255000   
242.500000	0.299000   
243.000000	0.366000   
243.500000	0.307000   
244.000000	0.242000   
244.500000	0.297000   
245.000000	0.344000   
245.500000	0.197000   
246.000000	0.305000   
246.500000	0.304000   
247.000000	0.288000   
247.500000	0.339000   
248.000000	0.309000   
248.500000	0.311000   
249.000000	0.405000   
249.500000	0.221000   
250.000000	0.372000   
250.500000	0.449000   
251.000000	0.287000   
251.500000	0.418000   
252.000000	0.425000   
252.500000	0.408000   
253.000000	0.266000   
253.500000	0.349000   
254.000000	0.356000   
254.500000	0.274000   
255.000000	0.303000   
255.500000	0.486000   
256.000000	0.356000   
256.500000	0.393000   
257.000000	0.312000   
257.500000	0.341000   
258.000000	0.357000   
258.500000	0.434000   
259.000000	0.406000   
259.500000	0.524000   
260.000000	0.342000   
260.500000	0.370000   
261.000000	0.339000   
261.500000	0.343000   
262.000000	0.392000   
262.500000	0.466000   
263.000000	0.424000   
263.500000	0.408000   
264.000000	0.420000   
264.500000	0.437000   
265.000000	0.443000   
265.500000	0.433000   
266.000000	0.390000   
266.500000	0.439000   
267.000000	0.372000   
267.500000	0.525000   
268.000000	0.606000   
268.500000	0.623000   
269.000000	0.628000   
269.500000	0.455000   
270.000000	0.478000   
270.500000	0.629000   
271.000000	0.599000   
271.500000	0.662000   
272.000000	0.620000   
272.500000	0.529000   
273.000000	0.649000   
273.500000	0.656000   
274.000000	0.624000   
274.500000	0.639000   
275.000000	0.688999   
275.500000	0.799000   
276.000000	0.763000   
276.500000	0.777000   
277.000000	0.750000   
277.500000	0.660000   
278.000000	0.733000   
278.500000	0.870000   
279.000000	0.846000   
279.500000	0.824000   
280.000000	0.916000   
280.500000	0.907000   
281.000000	1.009000   
281.500000	1.078000   
282.000000	0.836000   
282.500000	0.841000   
283.000000	0.952000   
283.500000	1.064000   
284.000000	1.398000   
284.500000	1.117000   
285.000000	1.148000   
285.500000	1.122000   
286.000000	1.196000   
286.500000	1.161000   
287.000000	1.387000   
287.500000	1.371000   
288.000000	1.406000   
288.500000	1.540000   
289.000000	1.732000   
289.500000	1.601000   
290.000000	1.372000   
290.500000	1.770000   
291.000000	1.721000   
291.500000	1.908000   
292.000000	2.022000   
292.500000	1.963000   
293.000000	1.966000   
293.500000	2.201000   
294.000000	2.328000   
294.500000	1.965000   
295.000000	2.292000   
295.500000	2.518000   
296.000000	2.456000   
296.500000	2.994000   
297.000000	3.211000   
297.500000	3.560000   
298.000000	4.481000   
298.500000	5.228000   
299.000000	6.763000   
299.500000	8.707000   
300.000000	10.539000  
300.500000	13.774000  
301.000000	17.667000  
301.500000	21.472000  
302.000000	25.562000  
302.500000	30.607000  
303.000000	39.795000  
303.500000	48.514000  
304.000000	59.224000  
304.500000	67.631000  
305.000000	84.081000  
305.500000	97.102000  
306.000000	112.268000 
306.500000	126.074000 
307.000000	148.216000 
307.500000	169.975000 
308.000000	187.422000 
308.500000	210.150000 
309.000000	231.621000 
309.500000	259.812000 
310.000000	282.542000 
310.500000	314.731000 
311.000000	343.129000 
311.500000	362.703000 
312.000000	387.011000 
312.500000	411.946000 
313.000000	423.659000 
313.500000	447.552000 
314.000000	467.880000 
314.500000	488.918000 
315.000000	503.276000 
315.500000	514.782000 
316.000000	527.052000 
316.500000	530.372000 
317.000000	531.413000 
317.500000	530.783000 
318.000000	526.458000 
318.500000	519.471000 
319.000000	513.326000 
319.500000	498.586000 
320.000000	480.436000 
320.500000	462.279000 
321.000000	446.677000 
321.500000	426.945000 
322.000000	405.031000 
322.500000	382.229000 
323.000000	353.807000 
323.500000	330.320000 
324.000000	301.434000 
324.500000	272.375000 
325.000000	243.820000 
325.500000	225.131000 
326.000000	197.853000 
326.500000	181.016000 
327.000000	158.982000 
327.500000	138.564000 
328.000000	120.418000 
328.500000	103.760000 
329.000000	86.989999  
329.500000	74.142000  
330.000000	61.841000  
330.500000	50.641000  
331.000000	43.392000  
331.500000	36.011000  
332.000000	30.762000  
332.500000	24.289000  
333.000000	19.986000  
333.500000	16.997000  
334.000000	15.450000  
334.500000	13.118000  
335.000000	11.850000  
335.500000	11.617000  
336.000000	11.097000  
336.500000	10.103000  
337.000000	11.355000  
337.500000	12.709000  
338.000000	12.894000  
338.500000	14.270000  
339.000000	15.752000  
339.500000	16.812000  
340.000000	18.858000  
340.500000	21.345000  
341.000000	23.342000  
341.500000	25.441000  
342.000000	28.699000  
342.500000	30.182000  
343.000000	31.862000  
343.500000	35.359000  
344.000000	39.910000  
344.500000	43.112000  
345.000000	48.605000  
345.500000	50.733000  
346.000000	55.823000  
346.500000	58.347000  
347.000000	64.244000  
347.500000	67.154000  
348.000000	71.977999  
348.500000	75.015000  
349.000000	80.413000  
349.500000	83.048000  
350.000000	86.802000  
350.500000	89.468000  
351.000000	94.894000  
351.500000	96.069000  
352.000000	98.319999  
352.500000	99.202000  
353.000000	102.262000 
353.500000	100.848000 
354.000000	101.415000 
354.500000	102.778000 
355.000000	100.479000 
355.500000	100.602000 
356.000000	98.992999  
356.500000	97.733000  
357.000000	94.308000  
357.500000	92.022000  
358.000000	88.331000  
358.500000	83.793000  
359.000000	83.496000  
359.500000	80.547000  
360.000000	77.897000  
360.500000	72.273000  
361.000000	69.331999  
361.500000	64.168000  
362.000000	60.081000  
362.500000	55.833000  
363.000000	51.003000  
363.500000	47.332000  
364.000000	45.288000  
364.500000	40.764000  
365.000000	36.979000  
365.500000	33.888000  
366.000000	30.458000  
366.500000	27.660000  
367.000000	24.252000  
367.500000	22.787000  
368.000000	19.917000  
368.500000	18.148000  
369.000000	16.249000  
369.500000	13.786000  
370.000000	11.628000  
370.500000	10.448000  
371.000000	9.917999   
371.500000	8.167000   
372.000000	6.966000   
372.500000	6.025000   
373.000000	5.219000   
373.500000	4.983000   
374.000000	4.261000   
374.500000	3.872000   
375.000000	4.050000   
375.500000	3.159000   
376.000000	2.985000   
376.500000	2.728000   
377.000000	2.952000   
377.500000	2.686000   
378.000000	2.538000   
378.500000	2.042000   
379.000000	2.082000   
379.500000	2.252000   
380.000000	2.117000   
380.500000	2.081000   
381.000000	2.049000   
381.500000	1.885000   
382.000000	1.763000   
382.500000	1.915000   
383.000000	1.749000   
383.500000	1.773000   
384.000000	1.524000   
384.500000	1.506000   
385.000000	1.691000   
385.500000	1.862000   
386.000000	1.542000   
386.500000	1.534000   
387.000000	1.672000   
387.500000	1.609000   
388.000000	1.486000   
388.500000	1.467000   
389.000000	1.662000   
389.500000	1.574000   
390.000000	1.750000   
390.500000	1.570000   
391.000000	1.429000   
391.500000	1.276000   
392.000000	1.556000   
392.500000	1.670000   
393.000000	1.504000   
393.500000	1.642000   
394.000000	1.248000   
394.500000	1.720000   
395.000000	1.514000   
395.500000	1.565000   
396.000000	1.406000   
396.500000	1.551000   
397.000000	1.621000   
397.500000	1.472000   
398.000000	1.695000   
398.500000	1.473000   
399.000000	1.534000   
399.500000	1.623000   
400.000000	1.607000   
400.500000	1.614000   
401.000000	1.278000   
401.500000	1.359000   
402.000000	1.472000   
402.500000	1.515000   
403.000000	1.640000   
403.500000	1.558000   
404.000000	1.619000   
404.500000	1.464000   
405.000000	1.450000   
405.500000	1.664000   
406.000000	1.539000   
406.500000	1.245000   
407.000000	1.356000   
407.500000	1.429000   
408.000000	1.586000   
408.500000	1.455000   
409.000000	1.294000   
409.500000	1.409000   
410.000000	1.326000   
410.500000	1.445000   
411.000000	1.435000   
411.500000	1.512000   
412.000000	1.260000   
412.500000	1.428000   
413.000000	1.396000   
413.500000	1.318000   
414.000000	1.288000   
414.500000	1.592000   
415.000000	1.230000   
415.500000	1.203000   
416.000000	1.279000   
416.500000	1.268000   
417.000000	1.284000   
417.500000	1.238000   
418.000000	1.252000   
418.500000	1.107000   
419.000000	1.212000   
419.500000	1.337000   
420.000000	1.506000   
420.500000	1.370000   
421.000000	0.975000   
421.500000	1.094000   
422.000000	1.053000   
422.500000	1.188000   
423.000000	1.127000   
423.500000	1.265000   
424.000000	1.188000   
424.500000	1.099000   
425.000000	1.297000   
425.500000	1.298000   
426.000000	1.319000   
426.500000	1.149000   
427.000000	1.313000   
427.500000	1.014000   
428.000000	1.241000   
428.500000	1.269000   
429.000000	1.180000   
429.500000	0.952000   
430.000000	1.002000   
430.500000	1.042000   
431.000000	1.097000   
431.500000	1.038000   
432.000000	1.160000   
432.500000	1.109000   
433.000000	1.022000   
433.500000	0.967000   
434.000000	1.069000   
434.500000	1.068000   
435.000000	1.007000   
435.500000	1.198000   
436.000000	1.148000   
436.500000	1.155000   
437.000000	1.144000   
437.500000	1.119000   
438.000000	1.136000   
438.500000	1.005000   
439.000000	1.189000   
439.500000	1.189000   
440.000000	1.074000   
440.500000	1.080000   
441.000000	0.972000   
441.500000	1.132000   
442.000000	1.103000   
442.500000	1.078000   
443.000000	1.164000   
443.500000	1.111000   
444.000000	1.136000   
444.500000	0.989000   
445.000000	0.805000   
445.500000	0.995000   
446.000000	1.142000   
446.500000	0.941999   
447.000000	0.942999   
447.500000	1.032000   
448.000000	0.914000   
448.500000	1.033000   
449.000000	1.076000   
449.500000	1.039000   
450.000000	1.040000   
450.500000	1.005000   
451.000000	0.886000   
451.500000	1.094000   
452.000000	1.336000   
452.500000	1.095000   
453.000000	1.050000   
453.500000	0.984000   
454.000000	0.991000   
454.500000	1.168000   
455.000000	1.166000   
455.500000	1.256000   
456.000000	1.137000   
456.500000	1.233000   
457.000000	1.373000   
457.500000	0.936000   
458.000000	1.142000   
458.500000	1.098000   
459.000000	1.220000   
459.500000	1.257000   
460.000000	1.247000   
460.500000	1.046000   
461.000000	1.134000   
461.500000	1.084000   
462.000000	1.275000   
462.500000	1.229000   
463.000000	0.923000   
463.500000	1.097000   
464.000000	1.178000   
464.500000	1.111000   
465.000000	1.012000   
465.500000	1.028000   
466.000000	1.057000   
466.500000	1.042000   
467.000000	0.865000   
467.500000	0.734000   
468.000000	0.993000   
468.500000	1.012000   
469.000000	0.950000   
469.500000	0.971000   
470.000000	1.232000   
470.500000	0.962000   
471.000000	1.048000   
471.500000	0.970000   
472.000000	0.906000   
472.500000	0.957000   
473.000000	0.970000   
473.500000	0.903000   
474.000000	0.891000   
474.500000	0.927000   
475.000000	0.849000   
475.500000	0.797000   
476.000000	1.049000   
476.500000	1.015000   
477.000000	0.910000   
477.500000	0.909000   
478.000000	1.100000   
478.500000	1.028000   
479.000000	0.886000   
479.500000	0.868000   
480.000000	0.814999   
480.500000	0.907000   
481.000000	0.782000   
481.500000	0.993000   
482.000000	0.999000   
482.500000	0.882000   
483.000000	0.865000   
483.500000	1.086000   
484.000000	1.002000   
484.500000	1.029000   
485.000000	0.927000   
485.500000	0.764000   
486.000000	0.789000   
486.500000	0.992000   
487.000000	0.805000   
487.500000	0.950000   
488.000000	1.029000   
488.500000	1.041000   
489.000000	0.890000   
489.500000	0.895000   
490.000000	1.109000   
490.500000	1.098000   
491.000000	1.014000   
491.500000	0.894000   
492.000000	1.146000   
492.500000	1.208000   
493.000000	1.350000   
493.500000	1.220000   
494.000000	0.962000   
494.500000	0.864000   
495.000000	0.946000   
495.500000	1.166000   
496.000000	1.107000   
496.500000	1.006000   
497.000000	1.068000   
497.500000	0.992000   
498.000000	1.047000   
498.500000	0.882000   
499.000000	0.930000   
499.500000	0.946000   
500.000000	0.889000   
500.500000	0.865000   
501.000000	1.021000   
501.500000	0.990000   
502.000000	0.885000   
502.500000	1.059000   
503.000000	0.801000   
503.500000	0.997000   
504.000000	0.982000   
504.500000	0.740000   
505.000000	0.969000   
505.500000	0.882000   
506.000000	0.844000   
506.500000	0.879000   
507.000000	0.806000   
507.500000	0.713000   
508.000000	0.873000   
508.500000	0.711000   
509.000000	0.730000   
509.500000	0.740000   
510.000000	0.674000   
510.500000	0.674000   
511.000000	0.728000   
511.500000	0.815999   
512.000000	0.795000   
512.500000	0.837000   
513.000000	0.839000   
513.500000	0.781000   
514.000000	0.879000   
514.500000	0.849000   
515.000000	1.028000   
515.500000	0.880000   
516.000000	1.076000   
516.500000	0.989000   
517.000000	1.030000   
517.500000	1.001000   
518.000000	0.741000   
518.500000	0.897000   
519.000000	0.754000   
519.500000	0.912000   
520.000000	0.983000   
520.500000	0.879000   
521.000000	0.902000   
521.500000	0.783000   
522.000000	0.986000   
522.500000	0.723000   
523.000000	0.694000   
523.500000	0.797000   
524.000000	0.715000   
524.500000	0.923000   
525.000000	0.975000   
525.500000	0.799000   
526.000000	0.711000   
526.500000	0.947000   
527.000000	0.944000   
527.500000	0.721000   
528.000000	0.846000   
528.500000	0.761000   
529.000000	0.718000   
529.500000	0.701000   
530.000000	0.729000   
530.500000	0.905000   
531.000000	0.731000   
531.500000	0.619000   
532.000000	0.650000   
532.500000	0.610000   
533.000000	0.757000   
533.500000	0.838000   
534.000000	0.842000   
534.500000	0.733000   
535.000000	0.694000   
535.500000	0.720000   
536.000000	0.750000   
536.500000	0.731000   
537.000000	0.739000   
537.500000	0.748000   
538.000000	0.771000   
538.500000	0.899000   
539.000000	0.900000   
539.500000	0.976000   
540.000000	0.618000   
540.500000	0.843000   
541.000000	0.998000   
541.500000	0.929000   
542.000000	0.798000   
542.500000	0.823000   
543.000000	0.916000   
543.500000	0.891000   
544.000000	0.771000   
544.500000	0.749000   
545.000000	0.956000   
545.500000	0.888000   
546.000000	0.832000   
546.500000	0.893000   
547.000000	0.710000   
547.500000	0.747000   
548.000000	0.695000   
548.500000	0.910000   

