PE FL                   SPECTRUM    ASCII       PEDS        1.60        
  -1
0124DI~1.SP
19/01/24
10:42:57.00
19/01/24
10:42:57.00


548.500000
1









LS45
435.00
10.00
10.00
SCAN
1
16
100
100
0
600
0
1
0
1
7
ON
435 365 
0 0 0
#HDR
-1
-1
#GR
NM
INT 
0.00002384185791015625
0.0
230.000000
0.500000
638
8
251.319000
0.008999
#DATA
230.000000	0.103000   
230.500000	0.097000   
231.000000	0.087999   
231.500000	0.090000   
232.000000	0.037000   
232.500000	0.110000   
233.000000	0.147000   
233.500000	0.080000   
234.000000	0.078000   
234.500000	0.089000   
235.000000	0.090000   
235.500000	0.092000   
236.000000	0.087999   
236.500000	0.062000   
237.000000	0.063000   
237.500000	0.074000   
238.000000	0.084000   
238.500000	0.095000   
239.000000	0.039000   
239.500000	0.041000   
240.000000	0.076000   
240.500000	0.081000   
241.000000	0.105000   
241.500000	0.061000   
242.000000	0.037000   
242.500000	0.068000   
243.000000	0.095000   
243.500000	0.052000   
244.000000	0.047000   
244.500000	0.086999   
245.000000	0.067000   
245.500000	0.085999   
246.000000	0.031000   
246.500000	0.086999   
247.000000	0.058000   
247.500000	0.060000   
248.000000	0.042000   
248.500000	0.053000   
249.000000	0.055000   
249.500000	0.021000   
250.000000	0.033000   
250.500000	0.067000   
251.000000	0.070999   
251.500000	0.053000   
252.000000	0.080000   
252.500000	0.013000   
253.000000	0.068000   
253.500000	0.076000   
254.000000	0.074000   
254.500000	0.070999   
255.000000	0.049000   
255.500000	0.054000   
256.000000	0.057000   
256.500000	0.070000   
257.000000	0.039000   
257.500000	0.076000   
258.000000	0.025000   
258.500000	0.060000   
259.000000	0.051000   
259.500000	0.055000   
260.000000	0.025000   
260.500000	0.031000   
261.000000	0.048000   
261.500000	0.038000   
262.000000	0.075000   
262.500000	0.032000   
263.000000	0.056000   
263.500000	0.070000   
264.000000	0.050000   
264.500000	0.062000   
265.000000	0.065000   
265.500000	0.053000   
266.000000	0.086999   
266.500000	0.046000   
267.000000	0.053000   
267.500000	0.062000   
268.000000	0.047000   
268.500000	0.040000   
269.000000	0.062000   
269.500000	0.043000   
270.000000	0.012000   
270.500000	0.057000   
271.000000	0.056000   
271.500000	0.077000   
272.000000	0.036000   
272.500000	0.048000   
273.000000	0.064000   
273.500000	0.083000   
274.000000	0.086999   
274.500000	0.057000   
275.000000	0.087999   
275.500000	0.060000   
276.000000	0.052000   
276.500000	0.070000   
277.000000	0.061000   
277.500000	0.048000   
278.000000	0.044000   
278.500000	0.094000   
279.000000	0.081000   
279.500000	0.037000   
280.000000	0.064000   
280.500000	0.074000   
281.000000	0.063000   
281.500000	0.093000   
282.000000	0.106000   
282.500000	0.085999   
283.000000	0.076000   
283.500000	0.052000   
284.000000	0.008999   
284.500000	0.049000   
285.000000	0.070999   
285.500000	0.090000   
286.000000	0.090000   
286.500000	0.093000   
287.000000	0.092000   
287.500000	0.086999   
288.000000	0.038000   
288.500000	0.064000   
289.000000	0.066000   
289.500000	0.087999   
290.000000	0.086999   
290.500000	0.097000   
291.000000	0.143000   
291.500000	0.134000   
292.000000	0.082000   
292.500000	0.102000   
293.000000	0.136000   
293.500000	0.098000   
294.000000	0.098000   
294.500000	0.092000   
295.000000	0.084000   
295.500000	0.096000   
296.000000	0.107000   
296.500000	0.101000   
297.000000	0.112000   
297.500000	0.093000   
298.000000	0.143000   
298.500000	0.100000   
299.000000	0.035000   
299.500000	0.109000   
300.000000	0.103000   
300.500000	0.126000   
301.000000	0.122000   
301.500000	0.166000   
302.000000	0.158000   
302.500000	0.110000   
303.000000	0.111000   
303.500000	0.126000   
304.000000	0.159000   
304.500000	0.114000   
305.000000	0.126000   
305.500000	0.125000   
306.000000	0.135000   
306.500000	0.139000   
307.000000	0.146000   
307.500000	0.110000   
308.000000	0.104000   
308.500000	0.132000   
309.000000	0.154000   
309.500000	0.166000   
310.000000	0.098000   
310.500000	0.105000   
311.000000	0.127000   
311.500000	0.149000   
312.000000	0.144000   
312.500000	0.170000   
313.000000	0.085000   
313.500000	0.154000   
314.000000	0.137000   
314.500000	0.144000   
315.000000	0.135000   
315.500000	0.172000   
316.000000	0.184000   
316.500000	0.161000   
317.000000	0.195000   
317.500000	0.189000   
318.000000	0.193000   
318.500000	0.193000   
319.000000	0.175000   
319.500000	0.165000   
320.000000	0.196000   
320.500000	0.169000   
321.000000	0.193000   
321.500000	0.171000   
322.000000	0.132000   
322.500000	0.106000   
323.000000	0.141000   
323.500000	0.133000   
324.000000	0.162000   
324.500000	0.191000   
325.000000	0.182000   
325.500000	0.139000   
326.000000	0.123000   
326.500000	0.123000   
327.000000	0.211000   
327.500000	0.185000   
328.000000	0.092000   
328.500000	0.129000   
329.000000	0.173000   
329.500000	0.220000   
330.000000	0.210000   
330.500000	0.168000   
331.000000	0.200000   
331.500000	0.145000   
332.000000	0.163000   
332.500000	0.170000   
333.000000	0.210000   
333.500000	0.274000   
334.000000	0.167000   
334.500000	0.230000   
335.000000	0.176000   
335.500000	0.179000   
336.000000	0.228000   
336.500000	0.209000   
337.000000	0.204000   
337.500000	0.206000   
338.000000	0.190000   
338.500000	0.215000   
339.000000	0.208000   
339.500000	0.238000   
340.000000	0.232000   
340.500000	0.231000   
341.000000	0.216000   
341.500000	0.158000   
342.000000	0.160000   
342.500000	0.201000   
343.000000	0.186000   
343.500000	0.145000   
344.000000	0.173000   
344.500000	0.255000   
345.000000	0.219000   
345.500000	0.209000   
346.000000	0.141000   
346.500000	0.119000   
347.000000	0.188000   
347.500000	0.147000   
348.000000	0.137000   
348.500000	0.170000   
349.000000	0.176000   
349.500000	0.142000   
350.000000	0.197000   
350.500000	0.201000   
351.000000	0.157000   
351.500000	0.170000   
352.000000	0.167000   
352.500000	0.235000   
353.000000	0.168000   
353.500000	0.126000   
354.000000	0.151000   
354.500000	0.255000   
355.000000	0.180000   
355.500000	0.254000   
356.000000	0.234000   
356.500000	0.166000   
357.000000	0.178000   
357.500000	0.318000   
358.000000	0.190000   
358.500000	0.203000   
359.000000	0.209000   
359.500000	0.189000   
360.000000	0.176000   
360.500000	0.205000   
361.000000	0.169000   
361.500000	0.246000   
362.000000	0.218000   
362.500000	0.217000   
363.000000	0.202000   
363.500000	0.218000   
364.000000	0.240000   
364.500000	0.254000   
365.000000	0.238000   
365.500000	0.323000   
366.000000	0.245000   
366.500000	0.232000   
367.000000	0.251000   
367.500000	0.245000   
368.000000	0.281000   
368.500000	0.224000   
369.000000	0.257000   
369.500000	0.251000   
370.000000	0.305000   
370.500000	0.320000   
371.000000	0.181000   
371.500000	0.268000   
372.000000	0.217000   
372.500000	0.291000   
373.000000	0.274000   
373.500000	0.200000   
374.000000	0.199000   
374.500000	0.231000   
375.000000	0.302000   
375.500000	0.265000   
376.000000	0.313000   
376.500000	0.256000   
377.000000	0.256000   
377.500000	0.258000   
378.000000	0.307000   
378.500000	0.325000   
379.000000	0.254000   
379.500000	0.342000   
380.000000	0.375000   
380.500000	0.374000   
381.000000	0.283000   
381.500000	0.242000   
382.000000	0.285000   
382.500000	0.333000   
383.000000	0.338000   
383.500000	0.363000   
384.000000	0.380000   
384.500000	0.359000   
385.000000	0.440000   
385.500000	0.397000   
386.000000	0.435000   
386.500000	0.377000   
387.000000	0.427000   
387.500000	0.413000   
388.000000	0.424000   
388.500000	0.423000   
389.000000	0.429000   
389.500000	0.369000   
390.000000	0.462000   
390.500000	0.424000   
391.000000	0.486000   
391.500000	0.434000   
392.000000	0.493000   
392.500000	0.466000   
393.000000	0.451000   
393.500000	0.483000   
394.000000	0.381000   
394.500000	0.502000   
395.000000	0.564999   
395.500000	0.522000   
396.000000	0.489000   
396.500000	0.465000   
397.000000	0.538000   
397.500000	0.530000   
398.000000	0.567999   
398.500000	0.580000   
399.000000	0.498000   
399.500000	0.479000   
400.000000	0.498000   
400.500000	0.535000   
401.000000	0.514000   
401.500000	0.663000   
402.000000	0.700000   
402.500000	0.670000   
403.000000	0.640000   
403.500000	0.706000   
404.000000	0.702000   
404.500000	0.718000   
405.000000	0.750000   
405.500000	0.625000   
406.000000	0.648000   
406.500000	0.774000   
407.000000	0.808000   
407.500000	0.777000   
408.000000	0.879000   
408.500000	0.887000   
409.000000	0.785000   
409.500000	0.791000   
410.000000	0.893000   
410.500000	1.135000   
411.000000	1.281000   
411.500000	1.603000   
412.000000	1.648000   
412.500000	2.176000   
413.000000	2.790000   
413.500000	3.324000   
414.000000	4.122000   
414.500000	5.541000   
415.000000	6.888000   
415.500000	9.105000   
416.000000	11.398000  
416.500000	14.561000  
417.000000	18.145000  
417.500000	22.922000  
418.000000	26.282000  
418.500000	32.422000  
419.000000	38.231000  
419.500000	45.612000  
420.000000	52.574000  
420.500000	62.512000  
421.000000	69.876000  
421.500000	81.108000  
422.000000	93.224999  
422.500000	102.533000 
423.000000	112.729000 
423.500000	126.697000 
424.000000	137.763000 
424.500000	152.346000 
425.000000	166.619000 
425.500000	179.732000 
426.000000	188.841000 
426.500000	198.453000 
427.000000	209.129000 
427.500000	215.536000 
428.000000	227.067000 
428.500000	234.958000 
429.000000	239.588000 
429.500000	243.451000 
430.000000	246.909000 
430.500000	251.319000 
431.000000	247.937000 
431.500000	245.963000 
432.000000	243.629000 
432.500000	240.008000 
433.000000	235.601000 
433.500000	228.324000 
434.000000	219.689000 
434.500000	212.320000 
435.000000	198.789000 
435.500000	191.652000 
436.000000	178.692000 
436.500000	170.478000 
437.000000	156.726000 
437.500000	147.024000 
438.000000	130.887000 
438.500000	120.021000 
439.000000	105.881000 
439.500000	96.602000  
440.000000	84.534000  
440.500000	73.825999  
441.000000	64.494000  
441.500000	57.681000  
442.000000	48.801000  
442.500000	42.349000  
443.000000	35.904000  
443.500000	28.553000  
444.000000	24.203000  
444.500000	19.943000  
445.000000	16.102000  
445.500000	13.268000  
446.000000	10.482000  
446.500000	8.596000   
447.000000	6.215000   
447.500000	5.074000   
448.000000	4.710000   
448.500000	3.683000   
449.000000	3.073000   
449.500000	2.675000   
450.000000	2.192000   
450.500000	2.094000   
451.000000	1.956000   
451.500000	1.956000   
452.000000	1.902000   
452.500000	1.840000   
453.000000	1.699000   
453.500000	2.057000   
454.000000	1.900000   
454.500000	1.855000   
455.000000	2.063000   
455.500000	1.965000   
456.000000	2.035000   
456.500000	2.216000   
457.000000	2.192000   
457.500000	2.217000   
458.000000	2.142000   
458.500000	2.147000   
459.000000	2.222000   
459.500000	2.360000   
460.000000	2.207000   
460.500000	2.362000   
461.000000	2.245000   
461.500000	2.458000   
462.000000	2.783000   
462.500000	2.486000   
463.000000	2.637000   
463.500000	2.551000   
464.000000	2.683000   
464.500000	2.491000   
465.000000	2.551000   
465.500000	2.773000   
466.000000	2.778000   
466.500000	2.667000   
467.000000	2.691000   
467.500000	2.437000   
468.000000	2.490000   
468.500000	2.460000   
469.000000	2.333000   
469.500000	2.467000   
470.000000	2.069000   
470.500000	1.951000   
471.000000	1.989000   
471.500000	1.907000   
472.000000	1.827000   
472.500000	1.752000   
473.000000	1.568000   
473.500000	1.591000   
474.000000	1.515000   
474.500000	1.378000   
475.000000	1.252000   
475.500000	1.411000   
476.000000	1.299000   
476.500000	1.015000   
477.000000	1.130000   
477.500000	1.092000   
478.000000	1.063000   
478.500000	0.965000   
479.000000	1.002000   
479.500000	0.901000   
480.000000	0.855000   
480.500000	0.789000   
481.000000	0.793000   
481.500000	0.981000   
482.000000	0.945000   
482.500000	0.843000   
483.000000	0.847000   
483.500000	0.891000   
484.000000	0.975000   
484.500000	1.018000   
485.000000	1.112000   
485.500000	1.179000   
486.000000	1.321000   
486.500000	1.410000   
487.000000	1.533000   
487.500000	1.790000   
488.000000	1.571000   
488.500000	1.789000   
489.000000	2.052000   
489.500000	2.086000   
490.000000	2.258000   
490.500000	2.543000   
491.000000	2.792000   
491.500000	3.307000   
492.000000	3.092000   
492.500000	3.246000   
493.000000	3.854000   
493.500000	4.028000   
494.000000	4.480000   
494.500000	4.653000   
495.000000	5.266000   
495.500000	5.506000   
496.000000	5.597000   
496.500000	6.224000   
497.000000	6.169000   
497.500000	6.607000   
498.000000	6.924000   
498.500000	7.018000   
499.000000	6.896000   
499.500000	7.324000   
500.000000	7.742000   
500.500000	7.597000   
501.000000	7.777000   
501.500000	7.970000   
502.000000	8.663000   
502.500000	8.084000   
503.000000	9.023000   
503.500000	8.794000   
504.000000	8.643000   
504.500000	8.613000   
505.000000	8.782999   
505.500000	8.805999   
506.000000	8.933000   
506.500000	8.673999   
507.000000	7.971000   
507.500000	8.435000   
508.000000	8.119000   
508.500000	7.828000   
509.000000	7.691000   
509.500000	7.731000   
510.000000	7.251000   
510.500000	7.311000   
511.000000	7.098000   
511.500000	6.935000   
512.000000	5.958000   
512.500000	5.746000   
513.000000	5.477000   
513.500000	5.563000   
514.000000	4.902000   
514.500000	4.981000   
515.000000	4.390000   
515.500000	4.046000   
516.000000	3.505000   
516.500000	3.629000   
517.000000	3.096000   
517.500000	3.264000   
518.000000	2.640000   
518.500000	2.388000   
519.000000	2.156000   
519.500000	2.034000   
520.000000	2.039000   
520.500000	1.770000   
521.000000	1.689000   
521.500000	1.485000   
522.000000	1.305000   
522.500000	1.074000   
523.000000	1.166000   
523.500000	0.956000   
524.000000	0.816999   
524.500000	0.821000   
525.000000	0.736000   
525.500000	0.652000   
526.000000	0.581000   
526.500000	0.672000   
527.000000	0.559000   
527.500000	0.500000   
528.000000	0.421000   
528.500000	0.288000   
529.000000	0.356000   
529.500000	0.310000   
530.000000	0.302000   
530.500000	0.369000   
531.000000	0.363000   
531.500000	0.327000   
532.000000	0.262000   
532.500000	0.267000   
533.000000	0.320000   
533.500000	0.213000   
534.000000	0.222000   
534.500000	0.264000   
535.000000	0.266000   
535.500000	0.197000   
536.000000	0.187000   
536.500000	0.242000   
537.000000	0.256000   
537.500000	0.251000   
538.000000	0.302000   
538.500000	0.224000   
539.000000	0.198000   
539.500000	0.197000   
540.000000	0.157000   
540.500000	0.184000   
541.000000	0.143000   
541.500000	0.168000   
542.000000	0.122000   
542.500000	0.145000   
543.000000	0.197000   
543.500000	0.141000   
544.000000	0.104000   
544.500000	0.134000   
545.000000	0.151000   
545.500000	0.140000   
546.000000	0.124000   
546.500000	0.150000   
547.000000	0.136000   
547.500000	0.158000   
548.000000	0.122000   
548.500000	0.101000   

