PE FL                   SPECTRUM    ASCII       PEDS        1.60        
  -1
018CF9~1.SP
19/01/24
10:39:11.00
19/01/24
10:39:11.00


548.500000
1









LS45
410.00
10.00
10.00
SCAN
1
16
100
100
0
600
0
1
0
1
7
ON
435 365 
0 0 0
#HDR
-1
-1
#GR
NM
INT 
0.00002384185791015625
0.0
230.000000
0.500000
638
8
336.830000
-0.010000
#DATA
230.000000	0.000000   
230.500000	0.067000   
231.000000	0.070000   
231.500000	0.067000   
232.000000	0.066000   
232.500000	0.061000   
233.000000	0.048000   
233.500000	0.020000   
234.000000	0.037000   
234.500000	0.065000   
235.000000	0.046000   
235.500000	0.066000   
236.000000	0.059000   
236.500000	0.086999   
237.000000	0.077000   
237.500000	0.051000   
238.000000	0.107000   
238.500000	0.106000   
239.000000	0.082000   
239.500000	0.071999   
240.000000	0.079000   
240.500000	0.070999   
241.000000	0.051000   
241.500000	0.075000   
242.000000	0.061000   
242.500000	0.083000   
243.000000	0.054000   
243.500000	0.100000   
244.000000	0.041000   
244.500000	0.064000   
245.000000	0.090000   
245.500000	0.073000   
246.000000	0.063000   
246.500000	0.047000   
247.000000	0.071999   
247.500000	0.049000   
248.000000	0.076000   
248.500000	0.044000   
249.000000	0.087999   
249.500000	0.066000   
250.000000	0.043000   
250.500000	0.063000   
251.000000	0.066000   
251.500000	0.034000   
252.000000	0.080000   
252.500000	0.085000   
253.000000	0.071999   
253.500000	0.065000   
254.000000	0.059000   
254.500000	0.091000   
255.000000	0.069000   
255.500000	0.057000   
256.000000	-0.010000  
256.500000	0.085000   
257.000000	0.121000   
257.500000	0.055000   
258.000000	0.078000   
258.500000	0.034000   
259.000000	0.095000   
259.500000	0.118000   
260.000000	0.052000   
260.500000	0.056000   
261.000000	0.070000   
261.500000	0.069000   
262.000000	0.081000   
262.500000	0.064000   
263.000000	0.039000   
263.500000	0.064000   
264.000000	0.100000   
264.500000	0.091000   
265.000000	0.144000   
265.500000	0.066000   
266.000000	0.078000   
266.500000	0.093000   
267.000000	0.080000   
267.500000	0.113000   
268.000000	0.119000   
268.500000	0.091000   
269.000000	0.092000   
269.500000	0.097000   
270.000000	0.104000   
270.500000	0.096000   
271.000000	0.044000   
271.500000	0.073000   
272.000000	0.064000   
272.500000	0.118000   
273.000000	0.114000   
273.500000	0.125000   
274.000000	0.091000   
274.500000	0.104000   
275.000000	0.109000   
275.500000	0.151000   
276.000000	0.103000   
276.500000	0.115000   
277.000000	0.085000   
277.500000	0.089000   
278.000000	0.105000   
278.500000	0.137000   
279.000000	0.104000   
279.500000	0.103000   
280.000000	0.145000   
280.500000	0.094000   
281.000000	0.124000   
281.500000	0.048000   
282.000000	0.136000   
282.500000	0.123000   
283.000000	0.149000   
283.500000	0.121000   
284.000000	0.110000   
284.500000	0.104000   
285.000000	0.112000   
285.500000	0.094000   
286.000000	0.108000   
286.500000	0.099000   
287.000000	0.134000   
287.500000	0.096000   
288.000000	0.091000   
288.500000	0.159000   
289.000000	0.152000   
289.500000	0.107000   
290.000000	0.130000   
290.500000	0.201000   
291.000000	0.143000   
291.500000	0.182000   
292.000000	0.114000   
292.500000	0.135000   
293.000000	0.172000   
293.500000	0.124000   
294.000000	0.152000   
294.500000	0.147000   
295.000000	0.181000   
295.500000	0.164000   
296.000000	0.151000   
296.500000	0.170000   
297.000000	0.153000   
297.500000	0.240000   
298.000000	0.212000   
298.500000	0.175000   
299.000000	0.152000   
299.500000	0.194000   
300.000000	0.205000   
300.500000	0.177000   
301.000000	0.222000   
301.500000	0.321000   
302.000000	0.182000   
302.500000	0.195000   
303.000000	0.134000   
303.500000	0.198000   
304.000000	0.179000   
304.500000	0.151000   
305.000000	0.137000   
305.500000	0.150000   
306.000000	0.161000   
306.500000	0.146000   
307.000000	0.247000   
307.500000	0.142000   
308.000000	0.194000   
308.500000	0.198000   
309.000000	0.219000   
309.500000	0.200000   
310.000000	0.271000   
310.500000	0.229000   
311.000000	0.246000   
311.500000	0.214000   
312.000000	0.252000   
312.500000	0.258000   
313.000000	0.233000   
313.500000	0.155000   
314.000000	0.193000   
314.500000	0.166000   
315.000000	0.181000   
315.500000	0.190000   
316.000000	0.213000   
316.500000	0.247000   
317.000000	0.200000   
317.500000	0.189000   
318.000000	0.209000   
318.500000	0.145000   
319.000000	0.215000   
319.500000	0.174000   
320.000000	0.160000   
320.500000	0.215000   
321.000000	0.228000   
321.500000	0.252000   
322.000000	0.262000   
322.500000	0.195000   
323.000000	0.243000   
323.500000	0.243000   
324.000000	0.233000   
324.500000	0.201000   
325.000000	0.219000   
325.500000	0.194000   
326.000000	0.175000   
326.500000	0.213000   
327.000000	0.308000   
327.500000	0.274000   
328.000000	0.241000   
328.500000	0.316000   
329.000000	0.308000   
329.500000	0.270000   
330.000000	0.282000   
330.500000	0.274000   
331.000000	0.264000   
331.500000	0.274000   
332.000000	0.248000   
332.500000	0.230000   
333.000000	0.208000   
333.500000	0.212000   
334.000000	0.248000   
334.500000	0.272000   
335.000000	0.289000   
335.500000	0.241000   
336.000000	0.136000   
336.500000	0.246000   
337.000000	0.251000   
337.500000	0.280000   
338.000000	0.294000   
338.500000	0.322000   
339.000000	0.268000   
339.500000	0.293000   
340.000000	0.281000   
340.500000	0.316000   
341.000000	0.231000   
341.500000	0.243000   
342.000000	0.231000   
342.500000	0.283000   
343.000000	0.387000   
343.500000	0.368000   
344.000000	0.205000   
344.500000	0.280000   
345.000000	0.280000   
345.500000	0.332000   
346.000000	0.277000   
346.500000	0.292000   
347.000000	0.248000   
347.500000	0.249000   
348.000000	0.370000   
348.500000	0.404000   
349.000000	0.373000   
349.500000	0.457000   
350.000000	0.320000   
350.500000	0.279000   
351.000000	0.293000   
351.500000	0.327000   
352.000000	0.458000   
352.500000	0.324000   
353.000000	0.328000   
353.500000	0.326000   
354.000000	0.347000   
354.500000	0.355000   
355.000000	0.347000   
355.500000	0.482000   
356.000000	0.556000   
356.500000	0.388000   
357.000000	0.447000   
357.500000	0.470000   
358.000000	0.377000   
358.500000	0.544000   
359.000000	0.470000   
359.500000	0.480000   
360.000000	0.456000   
360.500000	0.584000   
361.000000	0.526000   
361.500000	0.527000   
362.000000	0.502000   
362.500000	0.567999   
363.000000	0.528000   
363.500000	0.535000   
364.000000	0.556000   
364.500000	0.540000   
365.000000	0.562000   
365.500000	0.566999   
366.000000	0.591000   
366.500000	0.601000   
367.000000	0.557000   
367.500000	0.537000   
368.000000	0.575000   
368.500000	0.530000   
369.000000	0.586000   
369.500000	0.628000   
370.000000	0.493000   
370.500000	0.633000   
371.000000	0.738000   
371.500000	0.768000   
372.000000	0.632000   
372.500000	0.631000   
373.000000	0.663000   
373.500000	0.777000   
374.000000	0.732000   
374.500000	0.827000   
375.000000	0.770000   
375.500000	0.682000   
376.000000	0.696000   
376.500000	0.793000   
377.000000	0.908000   
377.500000	0.722000   
378.000000	0.758000   
378.500000	1.024000   
379.000000	0.873000   
379.500000	1.115000   
380.000000	1.101000   
380.500000	1.153000   
381.000000	1.282000   
381.500000	1.221000   
382.000000	1.054000   
382.500000	1.189000   
383.000000	1.222000   
383.500000	1.240000   
384.000000	1.074000   
384.500000	1.089000   
385.000000	1.386000   
385.500000	1.400000   
386.000000	1.683000   
386.500000	1.958000   
387.000000	2.185000   
387.500000	2.468000   
388.000000	2.972000   
388.500000	3.357000   
389.000000	4.781000   
389.500000	6.034000   
390.000000	7.914000   
390.500000	10.167000  
391.000000	12.473000  
391.500000	15.546000  
392.000000	20.262000  
392.500000	25.082000  
393.000000	30.759000  
393.500000	38.111000  
394.000000	44.811000  
394.500000	55.101000  
395.000000	62.517000  
395.500000	72.818000  
396.000000	83.224999  
396.500000	96.499000  
397.000000	108.352000 
397.500000	123.697000 
398.000000	138.012000 
398.500000	155.466000 
399.000000	166.263000 
399.500000	186.678000 
400.000000	202.304000 
400.500000	217.685000 
401.000000	234.519000 
401.500000	252.368000 
402.000000	263.995000 
402.500000	278.608000 
403.000000	294.145000 
403.500000	298.615000 
404.000000	312.845000 
404.500000	318.689000 
405.000000	326.391000 
405.500000	331.541000 
406.000000	334.935000 
406.500000	336.830000 
407.000000	334.683000 
407.500000	331.182000 
408.000000	330.357000 
408.500000	324.647000 
409.000000	311.512000 
409.500000	305.072000 
410.000000	292.113000 
410.500000	280.449000 
411.000000	269.213000 
411.500000	255.358000 
412.000000	241.480000 
412.500000	222.826000 
413.000000	207.879000 
413.500000	190.810000 
414.000000	176.032000 
414.500000	158.285000 
415.000000	143.451000 
415.500000	124.980000 
416.000000	112.493000 
416.500000	98.646000  
417.000000	86.423000  
417.500000	74.275000  
418.000000	65.389000  
418.500000	53.645000  
419.000000	45.161000  
419.500000	37.143000  
420.000000	31.711000  
420.500000	25.376000  
421.000000	21.258000  
421.500000	16.939000  
422.000000	13.158000  
422.500000	10.508000  
423.000000	9.128000   
423.500000	6.949000   
424.000000	5.563000   
424.500000	4.719000   
425.000000	4.069000   
425.500000	3.413000   
426.000000	2.991000   
426.500000	2.956000   
427.000000	2.793000   
427.500000	2.684000   
428.000000	2.631000   
428.500000	2.386000   
429.000000	2.358000   
429.500000	2.487000   
430.000000	2.330000   
430.500000	2.592000   
431.000000	2.599000   
431.500000	2.752000   
432.000000	2.578000   
432.500000	2.615000   
433.000000	2.463000   
433.500000	2.492000   
434.000000	2.743000   
434.500000	2.546000   
435.000000	2.570000   
435.500000	2.723000   
436.000000	2.673000   
436.500000	2.686000   
437.000000	2.593000   
437.500000	2.431000   
438.000000	2.362000   
438.500000	2.258000   
439.000000	2.513000   
439.500000	2.374000   
440.000000	2.419000   
440.500000	2.251000   
441.000000	2.165000   
441.500000	2.223000   
442.000000	2.216000   
442.500000	2.137000   
443.000000	2.044000   
443.500000	2.011000   
444.000000	1.952000   
444.500000	1.851000   
445.000000	1.722000   
445.500000	1.692000   
446.000000	1.681000   
446.500000	1.570000   
447.000000	1.669000   
447.500000	1.423000   
448.000000	1.568000   
448.500000	1.731000   
449.000000	1.737000   
449.500000	1.557000   
450.000000	1.678000   
450.500000	1.784000   
451.000000	1.647000   
451.500000	1.823000   
452.000000	1.912000   
452.500000	2.137000   
453.000000	2.415000   
453.500000	2.534000   
454.000000	2.631000   
454.500000	2.848000   
455.000000	2.834000   
455.500000	3.267000   
456.000000	3.682000   
456.500000	4.243000   
457.000000	4.675000   
457.500000	5.137000   
458.000000	5.636000   
458.500000	5.587000   
459.000000	6.566000   
459.500000	7.204000   
460.000000	7.771000   
460.500000	8.205000   
461.000000	8.412000   
461.500000	9.519000   
462.000000	10.226000  
462.500000	10.778000  
463.000000	11.557000  
463.500000	12.223000  
464.000000	12.604000  
464.500000	12.646000  
465.000000	13.361000  
465.500000	14.549000  
466.000000	15.186000  
466.500000	14.917000  
467.000000	16.054000  
467.500000	16.568000  
468.000000	15.955000  
468.500000	16.924000  
469.000000	17.262000  
469.500000	17.128000  
470.000000	17.896000  
470.500000	18.268000  
471.000000	18.343000  
471.500000	17.336000  
472.000000	17.575000  
472.500000	17.786000  
473.000000	17.671000  
473.500000	17.595000  
474.000000	16.945000  
474.500000	16.375000  
475.000000	15.848000  
475.500000	15.222000  
476.000000	14.874000  
476.500000	14.786000  
477.000000	13.684000  
477.500000	12.918000  
478.000000	12.713000  
478.500000	11.928000  
479.000000	11.595000  
479.500000	11.071000  
480.000000	10.374000  
480.500000	9.629000   
481.000000	8.590999   
481.500000	8.048999   
482.000000	7.455000   
482.500000	7.077000   
483.000000	6.325000   
483.500000	6.329000   
484.000000	5.810000   
484.500000	5.253000   
485.000000	4.643000   
485.500000	4.645000   
486.000000	3.794000   
486.500000	3.451000   
487.000000	3.174000   
487.500000	2.751000   
488.000000	2.571000   
488.500000	2.275000   
489.000000	2.112000   
489.500000	1.883000   
490.000000	1.551000   
490.500000	1.651000   
491.000000	1.562000   
491.500000	1.309000   
492.000000	1.075000   
492.500000	0.934000   
493.000000	0.932000   
493.500000	0.865000   
494.000000	0.977000   
494.500000	0.909000   
495.000000	0.745000   
495.500000	0.643000   
496.000000	0.692999   
496.500000	0.686000   
497.000000	0.552000   
497.500000	0.506000   
498.000000	0.585000   
498.500000	0.505000   
499.000000	0.497000   
499.500000	0.542000   
500.000000	0.553000   
500.500000	0.499000   
501.000000	0.354000   
501.500000	0.389000   
502.000000	0.325000   
502.500000	0.423000   
503.000000	0.413000   
503.500000	0.367000   
504.000000	0.336000   
504.500000	0.330000   
505.000000	0.345000   
505.500000	0.367000   
506.000000	0.354000   
506.500000	0.365000   
507.000000	0.366000   
507.500000	0.315000   
508.000000	0.318000   
508.500000	0.341000   
509.000000	0.267000   
509.500000	0.224000   
510.000000	0.242000   
510.500000	0.294000   
511.000000	0.399000   
511.500000	0.251000   
512.000000	0.257000   
512.500000	0.374000   
513.000000	0.301000   
513.500000	0.321000   
514.000000	0.354000   
514.500000	0.234000   
515.000000	0.334000   
515.500000	0.295000   
516.000000	0.296000   
516.500000	0.278000   
517.000000	0.241000   
517.500000	0.235000   
518.000000	0.287000   
518.500000	0.313000   
519.000000	0.319000   
519.500000	0.240000   
520.000000	0.252000   
520.500000	0.218000   
521.000000	0.206000   
521.500000	0.297000   
522.000000	0.231000   
522.500000	0.227000   
523.000000	0.224000   
523.500000	0.242000   
524.000000	0.203000   
524.500000	0.310000   
525.000000	0.246000   
525.500000	0.250000   
526.000000	0.210000   
526.500000	0.238000   
527.000000	0.237000   
527.500000	0.256000   
528.000000	0.221000   
528.500000	0.205000   
529.000000	0.151000   
529.500000	0.175000   
530.000000	0.191000   
530.500000	0.191000   
531.000000	0.196000   
531.500000	0.264000   
532.000000	0.184000   
532.500000	0.232000   
533.000000	0.153000   
533.500000	0.197000   
534.000000	0.232000   
534.500000	0.216000   
535.000000	0.222000   
535.500000	0.205000   
536.000000	0.158000   
536.500000	0.200000   
537.000000	0.230000   
537.500000	0.227000   
538.000000	0.233000   
538.500000	0.203000   
539.000000	0.256000   
539.500000	0.245000   
540.000000	0.238000   
540.500000	0.174000   
541.000000	0.155000   
541.500000	0.193000   
542.000000	0.207000   
542.500000	0.136000   
543.000000	0.228000   
543.500000	0.238000   
544.000000	0.178000   
544.500000	0.237000   
545.000000	0.221000   
545.500000	0.162000   
546.000000	0.180000   
546.500000	0.171000   
547.000000	0.135000   
547.500000	0.133000   
548.000000	0.173000   
548.500000	0.251000   

