PE FL                   SPECTRUM    ASCII       PEDS        1.60        
  -1
018402~1.SP
19/01/24
10:55:46.00
19/01/24
10:55:46.00


548.500000
1









LS45
520.00
10.00
10.00
SCAN
1
16
100
100
0
600
0
1
0
1
7
ON
435 365 
0 0 0
#HDR
-1
-1
#GR
NM
INT 
0.00002384185791015625
0.0
230.000000
0.500000
638
8
107.305000
0.000000
#DATA
230.000000	0.000000   
230.500000	0.026000   
231.000000	0.010000   
231.500000	0.040000   
232.000000	0.000000   
232.500000	0.007000   
233.000000	0.037000   
233.500000	0.041000   
234.000000	0.008000   
234.500000	0.012000   
235.000000	0.000000   
235.500000	0.000000   
236.000000	0.007000   
236.500000	0.029000   
237.000000	0.012000   
237.500000	0.010000   
238.000000	0.040000   
238.500000	0.004000   
239.000000	0.012000   
239.500000	0.000000   
240.000000	0.004000   
240.500000	0.016000   
241.000000	0.012000   
241.500000	0.013000   
242.000000	0.052000   
242.500000	0.030000   
243.000000	0.094000   
243.500000	0.127000   
244.000000	0.094000   
244.500000	0.085000   
245.000000	0.145000   
245.500000	0.153000   
246.000000	0.201000   
246.500000	0.223000   
247.000000	0.365000   
247.500000	0.439000   
248.000000	0.579000   
248.500000	0.824000   
249.000000	0.783000   
249.500000	0.955000   
250.000000	1.033000   
250.500000	1.236000   
251.000000	1.421000   
251.500000	1.492000   
252.000000	1.613000   
252.500000	1.932000   
253.000000	2.066000   
253.500000	2.046000   
254.000000	2.395000   
254.500000	2.525000   
255.000000	2.702000   
255.500000	2.911000   
256.000000	2.883000   
256.500000	3.190000   
257.000000	3.108000   
257.500000	3.050000   
258.000000	3.283000   
258.500000	3.041000   
259.000000	2.990000   
259.500000	2.940000   
260.000000	2.903000   
260.500000	2.927000   
261.000000	2.785000   
261.500000	2.712000   
262.000000	2.530000   
262.500000	2.486000   
263.000000	1.893000   
263.500000	1.830000   
264.000000	1.712000   
264.500000	1.452000   
265.000000	1.536000   
265.500000	1.286000   
266.000000	1.073000   
266.500000	0.963000   
267.000000	0.950000   
267.500000	0.832000   
268.000000	0.663000   
268.500000	0.633000   
269.000000	0.500000   
269.500000	0.469000   
270.000000	0.348000   
270.500000	0.271000   
271.000000	0.232000   
271.500000	0.299000   
272.000000	0.310000   
272.500000	0.369000   
273.000000	0.435000   
273.500000	0.450000   
274.000000	0.477000   
274.500000	0.547000   
275.000000	0.811000   
275.500000	0.697000   
276.000000	0.711000   
276.500000	0.855000   
277.000000	0.995000   
277.500000	1.090000   
278.000000	1.030000   
278.500000	1.186000   
279.000000	1.208000   
279.500000	1.264000   
280.000000	1.367000   
280.500000	1.280000   
281.000000	1.417000   
281.500000	1.500000   
282.000000	1.343000   
282.500000	1.505000   
283.000000	1.631000   
283.500000	1.500000   
284.000000	1.496000   
284.500000	1.552000   
285.000000	1.537000   
285.500000	1.423000   
286.000000	1.442000   
286.500000	1.326000   
287.000000	1.377000   
287.500000	1.251000   
288.000000	1.192000   
288.500000	1.132000   
289.000000	0.907000   
289.500000	0.830000   
290.000000	0.838000   
290.500000	0.766000   
291.000000	0.815999   
291.500000	0.529000   
292.000000	0.375000   
292.500000	0.429000   
293.000000	0.351000   
293.500000	0.307000   
294.000000	0.307000   
294.500000	0.299000   
295.000000	0.146000   
295.500000	0.109000   
296.000000	0.144000   
296.500000	0.176000   
297.000000	0.159000   
297.500000	0.069000   
298.000000	0.076000   
298.500000	0.079000   
299.000000	0.086999   
299.500000	0.086999   
300.000000	0.083000   
300.500000	0.068000   
301.000000	0.075000   
301.500000	0.098000   
302.000000	0.096000   
302.500000	0.085000   
303.000000	0.095000   
303.500000	0.084000   
304.000000	0.074000   
304.500000	0.071999   
305.000000	0.087999   
305.500000	0.092000   
306.000000	0.114000   
306.500000	0.085999   
307.000000	0.097000   
307.500000	0.078000   
308.000000	0.051000   
308.500000	0.063000   
309.000000	0.101000   
309.500000	0.098000   
310.000000	0.085000   
310.500000	0.096000   
311.000000	0.141000   
311.500000	0.106000   
312.000000	0.058000   
312.500000	0.075000   
313.000000	0.070999   
313.500000	0.082000   
314.000000	0.078000   
314.500000	0.069000   
315.000000	0.060000   
315.500000	0.083000   
316.000000	0.074000   
316.500000	0.104000   
317.000000	0.083000   
317.500000	0.121000   
318.000000	0.045000   
318.500000	0.058000   
319.000000	0.090000   
319.500000	0.095000   
320.000000	0.073000   
320.500000	0.087999   
321.000000	0.100000   
321.500000	0.094000   
322.000000	0.129000   
322.500000	0.040000   
323.000000	0.078000   
323.500000	0.109000   
324.000000	0.080000   
324.500000	0.085999   
325.000000	0.082000   
325.500000	0.119000   
326.000000	0.091000   
326.500000	0.111000   
327.000000	0.068000   
327.500000	0.032000   
328.000000	0.040000   
328.500000	0.093000   
329.000000	0.046000   
329.500000	0.045000   
330.000000	0.075000   
330.500000	0.047000   
331.000000	0.100000   
331.500000	0.089000   
332.000000	0.070999   
332.500000	0.085000   
333.000000	0.075000   
333.500000	0.076000   
334.000000	0.104000   
334.500000	0.087999   
335.000000	0.112000   
335.500000	0.129000   
336.000000	0.127000   
336.500000	0.089000   
337.000000	0.096000   
337.500000	0.094000   
338.000000	0.096000   
338.500000	0.111000   
339.000000	0.103000   
339.500000	0.048000   
340.000000	0.086999   
340.500000	0.054000   
341.000000	0.060000   
341.500000	0.092000   
342.000000	0.116000   
342.500000	0.064000   
343.000000	0.085000   
343.500000	0.108000   
344.000000	0.083000   
344.500000	0.074000   
345.000000	0.107000   
345.500000	0.143000   
346.000000	0.099000   
346.500000	0.078000   
347.000000	0.056000   
347.500000	0.082000   
348.000000	0.102000   
348.500000	0.096000   
349.000000	0.082000   
349.500000	0.099000   
350.000000	0.094000   
350.500000	0.109000   
351.000000	0.064000   
351.500000	0.070999   
352.000000	0.086999   
352.500000	0.105000   
353.000000	0.105000   
353.500000	0.075000   
354.000000	0.037000   
354.500000	0.076000   
355.000000	0.076000   
355.500000	0.118000   
356.000000	0.082000   
356.500000	0.076000   
357.000000	0.060000   
357.500000	0.101000   
358.000000	0.150000   
358.500000	0.106000   
359.000000	0.024000   
359.500000	0.061000   
360.000000	0.079000   
360.500000	0.078000   
361.000000	0.097000   
361.500000	0.102000   
362.000000	0.036000   
362.500000	0.087999   
363.000000	0.100000   
363.500000	0.094000   
364.000000	0.116000   
364.500000	0.093000   
365.000000	0.074000   
365.500000	0.092000   
366.000000	0.092000   
366.500000	0.054000   
367.000000	0.050000   
367.500000	0.112000   
368.000000	0.099000   
368.500000	0.105000   
369.000000	0.065000   
369.500000	0.070999   
370.000000	0.049000   
370.500000	0.104000   
371.000000	0.101000   
371.500000	0.082000   
372.000000	0.140000   
372.500000	0.148000   
373.000000	0.120000   
373.500000	0.106000   
374.000000	0.060000   
374.500000	0.092000   
375.000000	0.074000   
375.500000	0.077000   
376.000000	0.103000   
376.500000	0.079000   
377.000000	0.077000   
377.500000	0.134000   
378.000000	0.128000   
378.500000	0.105000   
379.000000	0.132000   
379.500000	0.090000   
380.000000	0.065000   
380.500000	0.077000   
381.000000	0.076000   
381.500000	0.060000   
382.000000	0.100000   
382.500000	0.105000   
383.000000	0.079000   
383.500000	0.061000   
384.000000	0.105000   
384.500000	0.109000   
385.000000	0.074000   
385.500000	0.074000   
386.000000	0.142000   
386.500000	0.058000   
387.000000	0.100000   
387.500000	0.060000   
388.000000	0.128000   
388.500000	0.108000   
389.000000	0.126000   
389.500000	0.083000   
390.000000	0.073000   
390.500000	0.089000   
391.000000	0.101000   
391.500000	0.064000   
392.000000	0.040000   
392.500000	0.122000   
393.000000	0.136000   
393.500000	0.141000   
394.000000	0.047000   
394.500000	0.094000   
395.000000	0.076000   
395.500000	0.106000   
396.000000	0.094000   
396.500000	0.065000   
397.000000	0.073000   
397.500000	0.110000   
398.000000	0.068000   
398.500000	0.083000   
399.000000	0.083000   
399.500000	0.097000   
400.000000	0.139000   
400.500000	0.087999   
401.000000	0.101000   
401.500000	0.084000   
402.000000	0.103000   
402.500000	0.098000   
403.000000	0.054000   
403.500000	0.067000   
404.000000	0.069000   
404.500000	0.080000   
405.000000	0.104000   
405.500000	0.105000   
406.000000	0.077000   
406.500000	0.167000   
407.000000	0.080000   
407.500000	0.104000   
408.000000	0.114000   
408.500000	0.015000   
409.000000	0.081000   
409.500000	0.099000   
410.000000	0.097000   
410.500000	0.090000   
411.000000	0.061000   
411.500000	0.108000   
412.000000	0.124000   
412.500000	0.127000   
413.000000	0.095000   
413.500000	0.105000   
414.000000	0.115000   
414.500000	0.129000   
415.000000	0.124000   
415.500000	0.147000   
416.000000	0.110000   
416.500000	0.070999   
417.000000	0.070000   
417.500000	0.059000   
418.000000	0.096000   
418.500000	0.131000   
419.000000	0.082000   
419.500000	0.099000   
420.000000	0.147000   
420.500000	0.081000   
421.000000	0.067000   
421.500000	0.052000   
422.000000	0.117000   
422.500000	0.111000   
423.000000	0.095000   
423.500000	0.121000   
424.000000	0.107000   
424.500000	0.079000   
425.000000	0.094000   
425.500000	0.086999   
426.000000	0.142000   
426.500000	0.101000   
427.000000	0.116000   
427.500000	0.108000   
428.000000	0.098000   
428.500000	0.148000   
429.000000	0.154000   
429.500000	0.116000   
430.000000	0.114000   
430.500000	0.146000   
431.000000	0.079000   
431.500000	0.074000   
432.000000	0.121000   
432.500000	0.140000   
433.000000	0.144000   
433.500000	0.090000   
434.000000	0.069000   
434.500000	0.139000   
435.000000	0.122000   
435.500000	0.106000   
436.000000	0.126000   
436.500000	0.143000   
437.000000	0.128000   
437.500000	0.076000   
438.000000	0.107000   
438.500000	0.130000   
439.000000	0.133000   
439.500000	0.209000   
440.000000	0.142000   
440.500000	0.128000   
441.000000	0.131000   
441.500000	0.089000   
442.000000	0.097000   
442.500000	0.187000   
443.000000	0.182000   
443.500000	0.111000   
444.000000	0.138000   
444.500000	0.117000   
445.000000	0.160000   
445.500000	0.120000   
446.000000	0.120000   
446.500000	0.173000   
447.000000	0.174000   
447.500000	0.144000   
448.000000	0.136000   
448.500000	0.167000   
449.000000	0.175000   
449.500000	0.180000   
450.000000	0.162000   
450.500000	0.211000   
451.000000	0.205000   
451.500000	0.219000   
452.000000	0.097000   
452.500000	0.165000   
453.000000	0.274000   
453.500000	0.290000   
454.000000	0.181000   
454.500000	0.181000   
455.000000	0.176000   
455.500000	0.210000   
456.000000	0.135000   
456.500000	0.187000   
457.000000	0.162000   
457.500000	0.149000   
458.000000	0.234000   
458.500000	0.238000   
459.000000	0.187000   
459.500000	0.317000   
460.000000	0.242000   
460.500000	0.191000   
461.000000	0.243000   
461.500000	0.206000   
462.000000	0.249000   
462.500000	0.210000   
463.000000	0.219000   
463.500000	0.208000   
464.000000	0.190000   
464.500000	0.129000   
465.000000	0.175000   
465.500000	0.197000   
466.000000	0.195000   
466.500000	0.202000   
467.000000	0.165000   
467.500000	0.197000   
468.000000	0.258000   
468.500000	0.259000   
469.000000	0.207000   
469.500000	0.225000   
470.000000	0.173000   
470.500000	0.243000   
471.000000	0.227000   
471.500000	0.178000   
472.000000	0.208000   
472.500000	0.182000   
473.000000	0.272000   
473.500000	0.194000   
474.000000	0.277000   
474.500000	0.245000   
475.000000	0.201000   
475.500000	0.295000   
476.000000	0.334000   
476.500000	0.170000   
477.000000	0.174000   
477.500000	0.268000   
478.000000	0.340000   
478.500000	0.385000   
479.000000	0.324000   
479.500000	0.311000   
480.000000	0.268000   
480.500000	0.302000   
481.000000	0.248000   
481.500000	0.290000   
482.000000	0.397000   
482.500000	0.453000   
483.000000	0.351000   
483.500000	0.455000   
484.000000	0.327000   
484.500000	0.336000   
485.000000	0.435000   
485.500000	0.365000   
486.000000	0.350000   
486.500000	0.401000   
487.000000	0.484000   
487.500000	0.430000   
488.000000	0.549000   
488.500000	0.451000   
489.000000	0.430000   
489.500000	0.425000   
490.000000	0.465000   
490.500000	0.495000   
491.000000	0.503000   
491.500000	0.503000   
492.000000	0.506000   
492.500000	0.577000   
493.000000	0.572000   
493.500000	0.523000   
494.000000	0.513000   
494.500000	0.479000   
495.000000	0.567999   
495.500000	0.584000   
496.000000	0.574000   
496.500000	0.605000   
497.000000	0.711000   
497.500000	0.791000   
498.000000	1.013000   
498.500000	1.096000   
499.000000	1.602000   
499.500000	1.967000   
500.000000	2.582000   
500.500000	3.500000   
501.000000	4.303000   
501.500000	5.474000   
502.000000	6.846000   
502.500000	8.635000   
503.000000	9.837000   
503.500000	11.673000  
504.000000	14.367000  
504.500000	16.679000  
505.000000	20.019000  
505.500000	22.575000  
506.000000	26.783000  
506.500000	30.190000  
507.000000	34.643000  
507.500000	39.428000  
508.000000	44.314000  
508.500000	48.110000  
509.000000	54.243000  
509.500000	58.556000  
510.000000	66.577000  
510.500000	70.800000  
511.000000	74.889000  
511.500000	78.783000  
512.000000	83.387000  
512.500000	88.586000  
513.000000	92.290000  
513.500000	95.278000  
514.000000	100.352000 
514.500000	101.069000 
515.000000	103.876000 
515.500000	104.904000 
516.000000	107.305000 
516.500000	104.362000 
517.000000	105.834000 
517.500000	104.384000 
518.000000	102.183000 
518.500000	100.825000 
519.000000	98.767000  
519.500000	92.980999  
520.000000	89.664000  
520.500000	87.188000  
521.000000	80.773000  
521.500000	75.025000  
522.000000	69.072000  
522.500000	65.699000  
523.000000	59.892000  
523.500000	55.570000  
524.000000	49.807000  
524.500000	45.235000  
525.000000	40.569000  
525.500000	37.088000  
526.000000	32.678000  
526.500000	27.353000  
527.000000	23.743000  
527.500000	20.093000  
528.000000	17.465000  
528.500000	14.966000  
529.000000	12.592000  
529.500000	10.264000  
530.000000	8.531000   
530.500000	6.709000   
531.000000	4.852000   
531.500000	4.283000   
532.000000	3.702000   
532.500000	2.922000   
533.000000	2.157000   
533.500000	1.701000   
534.000000	1.578000   
534.500000	1.206000   
535.000000	1.072000   
535.500000	0.847000   
536.000000	0.727000   
536.500000	0.703000   
537.000000	0.718000   
537.500000	0.658000   
538.000000	0.651000   
538.500000	0.645000   
539.000000	0.569000   
539.500000	0.490000   
540.000000	0.583000   
540.500000	0.530000   
541.000000	0.598000   
541.500000	0.556000   
542.000000	0.517000   
542.500000	0.520000   
543.000000	0.386000   
543.500000	0.404000   
544.000000	0.418000   
544.500000	0.328000   
545.000000	0.346000   
545.500000	0.374000   
546.000000	0.383000   
546.500000	0.454000   
547.000000	0.505000   
547.500000	0.415000   
548.000000	0.443000   
548.500000	0.456000   

