PE FL                   SPECTRUM    ASCII       PEDS        1.60        
  -1
017CF1~1.SP
19/01/24
10:37:40.00
19/01/24
10:37:40.00


548.500000
1









LS45
400.00
10.00
10.00
SCAN
1
16
100
100
0
600
0
1
0
1
7
ON
435 365 
0 0 0
#HDR
-1
-1
#GR
NM
INT 
0.00002384185791015625
0.0
230.000000
0.500000
638
8
356.341000
0.021000
#DATA
230.000000	0.091000   
230.500000	0.093000   
231.000000	0.058000   
231.500000	0.049000   
232.000000	0.038000   
232.500000	0.070000   
233.000000	0.064000   
233.500000	0.058000   
234.000000	0.028000   
234.500000	0.070999   
235.000000	0.082000   
235.500000	0.084000   
236.000000	0.080000   
236.500000	0.028000   
237.000000	0.021000   
237.500000	0.101000   
238.000000	0.090000   
238.500000	0.070000   
239.000000	0.070999   
239.500000	0.067000   
240.000000	0.079000   
240.500000	0.031000   
241.000000	0.083000   
241.500000	0.061000   
242.000000	0.044000   
242.500000	0.066000   
243.000000	0.051000   
243.500000	0.102000   
244.000000	0.062000   
244.500000	0.043000   
245.000000	0.056000   
245.500000	0.045000   
246.000000	0.092000   
246.500000	0.081000   
247.000000	0.085000   
247.500000	0.085999   
248.000000	0.066000   
248.500000	0.137000   
249.000000	0.118000   
249.500000	0.106000   
250.000000	0.073000   
250.500000	0.051000   
251.000000	0.089000   
251.500000	0.080000   
252.000000	0.078000   
252.500000	0.105000   
253.000000	0.082000   
253.500000	0.087999   
254.000000	0.078000   
254.500000	0.057000   
255.000000	0.096000   
255.500000	0.040000   
256.000000	0.054000   
256.500000	0.059000   
257.000000	0.065000   
257.500000	0.074000   
258.000000	0.068000   
258.500000	0.079000   
259.000000	0.123000   
259.500000	0.114000   
260.000000	0.096000   
260.500000	0.065000   
261.000000	0.084000   
261.500000	0.070000   
262.000000	0.117000   
262.500000	0.069000   
263.000000	0.111000   
263.500000	0.113000   
264.000000	0.101000   
264.500000	0.075000   
265.000000	0.126000   
265.500000	0.092000   
266.000000	0.042000   
266.500000	0.062000   
267.000000	0.085999   
267.500000	0.070000   
268.000000	0.083000   
268.500000	0.098000   
269.000000	0.124000   
269.500000	0.176000   
270.000000	0.111000   
270.500000	0.098000   
271.000000	0.082000   
271.500000	0.089000   
272.000000	0.136000   
272.500000	0.123000   
273.000000	0.140000   
273.500000	0.106000   
274.000000	0.108000   
274.500000	0.167000   
275.000000	0.134000   
275.500000	0.133000   
276.000000	0.085000   
276.500000	0.090000   
277.000000	0.096000   
277.500000	0.121000   
278.000000	0.144000   
278.500000	0.179000   
279.000000	0.155000   
279.500000	0.258000   
280.000000	0.219000   
280.500000	0.132000   
281.000000	0.128000   
281.500000	0.119000   
282.000000	0.175000   
282.500000	0.139000   
283.000000	0.106000   
283.500000	0.096000   
284.000000	0.128000   
284.500000	0.143000   
285.000000	0.136000   
285.500000	0.150000   
286.000000	0.135000   
286.500000	0.184000   
287.000000	0.208000   
287.500000	0.116000   
288.000000	0.142000   
288.500000	0.183000   
289.000000	0.210000   
289.500000	0.192000   
290.000000	0.187000   
290.500000	0.175000   
291.000000	0.197000   
291.500000	0.148000   
292.000000	0.107000   
292.500000	0.151000   
293.000000	0.166000   
293.500000	0.205000   
294.000000	0.280000   
294.500000	0.149000   
295.000000	0.237000   
295.500000	0.212000   
296.000000	0.124000   
296.500000	0.160000   
297.000000	0.144000   
297.500000	0.183000   
298.000000	0.125000   
298.500000	0.160000   
299.000000	0.182000   
299.500000	0.205000   
300.000000	0.205000   
300.500000	0.186000   
301.000000	0.163000   
301.500000	0.180000   
302.000000	0.215000   
302.500000	0.169000   
303.000000	0.283000   
303.500000	0.229000   
304.000000	0.335000   
304.500000	0.228000   
305.000000	0.259000   
305.500000	0.278000   
306.000000	0.278000   
306.500000	0.153000   
307.000000	0.163000   
307.500000	0.220000   
308.000000	0.264000   
308.500000	0.233000   
309.000000	0.238000   
309.500000	0.264000   
310.000000	0.196000   
310.500000	0.179000   
311.000000	0.295000   
311.500000	0.242000   
312.000000	0.219000   
312.500000	0.186000   
313.000000	0.260000   
313.500000	0.215000   
314.000000	0.204000   
314.500000	0.276000   
315.000000	0.329000   
315.500000	0.246000   
316.000000	0.286000   
316.500000	0.205000   
317.000000	0.365000   
317.500000	0.300000   
318.000000	0.275000   
318.500000	0.211000   
319.000000	0.262000   
319.500000	0.302000   
320.000000	0.286000   
320.500000	0.182000   
321.000000	0.287000   
321.500000	0.255000   
322.000000	0.203000   
322.500000	0.265000   
323.000000	0.446000   
323.500000	0.342000   
324.000000	0.229000   
324.500000	0.292000   
325.000000	0.367000   
325.500000	0.224000   
326.000000	0.237000   
326.500000	0.342000   
327.000000	0.335000   
327.500000	0.246000   
328.000000	0.298000   
328.500000	0.281000   
329.000000	0.260000   
329.500000	0.200000   
330.000000	0.259000   
330.500000	0.289000   
331.000000	0.228000   
331.500000	0.319000   
332.000000	0.348000   
332.500000	0.308000   
333.000000	0.354000   
333.500000	0.298000   
334.000000	0.292000   
334.500000	0.343000   
335.000000	0.371000   
335.500000	0.324000   
336.000000	0.384000   
336.500000	0.368000   
337.000000	0.339000   
337.500000	0.366000   
338.000000	0.309000   
338.500000	0.510000   
339.000000	0.457000   
339.500000	0.348000   
340.000000	0.344000   
340.500000	0.395000   
341.000000	0.395000   
341.500000	0.378000   
342.000000	0.457000   
342.500000	0.365000   
343.000000	0.328000   
343.500000	0.382000   
344.000000	0.467000   
344.500000	0.455000   
345.000000	0.337000   
345.500000	0.477000   
346.000000	0.524000   
346.500000	0.470000   
347.000000	0.470000   
347.500000	0.479000   
348.000000	0.552000   
348.500000	0.407000   
349.000000	0.460000   
349.500000	0.480000   
350.000000	0.464000   
350.500000	0.432000   
351.000000	0.466000   
351.500000	0.469000   
352.000000	0.444000   
352.500000	0.536000   
353.000000	0.576000   
353.500000	0.554000   
354.000000	0.726000   
354.500000	0.552000   
355.000000	0.580000   
355.500000	0.596000   
356.000000	0.600000   
356.500000	0.606000   
357.000000	0.698000   
357.500000	0.760000   
358.000000	0.805000   
358.500000	0.723000   
359.000000	0.722000   
359.500000	0.833000   
360.000000	0.785000   
360.500000	0.712000   
361.000000	0.671000   
361.500000	0.865000   
362.000000	0.654000   
362.500000	0.691999   
363.000000	0.754000   
363.500000	0.812000   
364.000000	0.901000   
364.500000	0.867000   
365.000000	0.941999   
365.500000	0.886000   
366.000000	0.995000   
366.500000	1.030000   
367.000000	1.070000   
367.500000	0.959000   
368.000000	0.927000   
368.500000	1.027000   
369.000000	0.967000   
369.500000	1.057000   
370.000000	1.036000   
370.500000	1.143000   
371.000000	1.145000   
371.500000	1.197000   
372.000000	1.153000   
372.500000	1.285000   
373.000000	1.215000   
373.500000	1.516000   
374.000000	1.495000   
374.500000	1.265000   
375.000000	1.460000   
375.500000	1.571000   
376.000000	1.882000   
376.500000	2.166000   
377.000000	2.282000   
377.500000	3.197000   
378.000000	3.791000   
378.500000	4.900000   
379.000000	5.437000   
379.500000	7.525000   
380.000000	9.619999   
380.500000	12.401000  
381.000000	15.322000  
381.500000	19.286000  
382.000000	23.690000  
382.500000	29.136000  
383.000000	35.595000  
383.500000	42.095000  
384.000000	50.820000  
384.500000	58.701000  
385.000000	69.046000  
385.500000	80.863000  
386.000000	93.572999  
386.500000	104.547000 
387.000000	118.810000 
387.500000	129.848000 
388.000000	146.393000 
388.500000	160.349000 
389.000000	177.669000 
389.500000	193.367000 
390.000000	212.516000 
390.500000	227.693000 
391.000000	245.234000 
391.500000	258.763000 
392.000000	275.827000 
392.500000	290.340000 
393.000000	301.358000 
393.500000	317.910000 
394.000000	328.964000 
394.500000	337.196000 
395.000000	343.481000 
395.500000	351.918000 
396.000000	354.910000 
396.500000	355.984000 
397.000000	356.341000 
397.500000	350.439000 
398.000000	347.582000 
398.500000	337.908000 
399.000000	334.148000 
399.500000	321.901000 
400.000000	311.268000 
400.500000	300.889000 
401.000000	285.258000 
401.500000	267.836000 
402.000000	252.934000 
402.500000	238.396000 
403.000000	218.183000 
403.500000	203.651000 
404.000000	185.798000 
404.500000	172.198000 
405.000000	153.631000 
405.500000	138.807000 
406.000000	121.647000 
406.500000	110.506000 
407.000000	97.523000  
407.500000	85.768000  
408.000000	75.363000  
408.500000	63.504000  
409.000000	52.310000  
409.500000	45.661000  
410.000000	37.826000  
410.500000	33.494000  
411.000000	26.710000  
411.500000	22.555000  
412.000000	18.189000  
412.500000	14.365000  
413.000000	11.856000  
413.500000	9.349000   
414.000000	8.012000   
414.500000	6.683000   
415.000000	5.494000   
415.500000	4.659000   
416.000000	4.073000   
416.500000	3.663000   
417.000000	3.069000   
417.500000	2.942000   
418.000000	2.836000   
418.500000	3.158000   
419.000000	3.064000   
419.500000	2.802000   
420.000000	3.117000   
420.500000	3.074000   
421.000000	2.705000   
421.500000	2.729000   
422.000000	2.864000   
422.500000	2.917000   
423.000000	2.791000   
423.500000	3.046000   
424.000000	2.767000   
424.500000	2.904000   
425.000000	2.513000   
425.500000	2.502000   
426.000000	2.420000   
426.500000	2.323000   
427.000000	2.543000   
427.500000	2.661000   
428.000000	2.439000   
428.500000	2.208000   
429.000000	2.423000   
429.500000	2.254000   
430.000000	2.135000   
430.500000	2.136000   
431.000000	2.148000   
431.500000	2.052000   
432.000000	1.866000   
432.500000	2.123000   
433.000000	2.135000   
433.500000	1.730000   
434.000000	1.748000   
434.500000	1.687000   
435.000000	1.641000   
435.500000	1.748000   
436.000000	1.626000   
436.500000	1.844000   
437.000000	1.942000   
437.500000	1.784000   
438.000000	1.997000   
438.500000	2.202000   
439.000000	2.368000   
439.500000	2.377000   
440.000000	2.419000   
440.500000	2.846000   
441.000000	3.356000   
441.500000	3.381000   
442.000000	3.750000   
442.500000	4.152000   
443.000000	4.793000   
443.500000	5.314000   
444.000000	5.841000   
444.500000	6.396000   
445.000000	6.752000   
445.500000	7.369000   
446.000000	7.956000   
446.500000	9.253000   
447.000000	9.782000   
447.500000	10.459000  
448.000000	11.007000  
448.500000	12.402000  
449.000000	13.651000  
449.500000	13.974000  
450.000000	14.618000  
450.500000	15.868000  
451.000000	16.523000  
451.500000	17.121000  
452.000000	17.961000  
452.500000	19.076000  
453.000000	19.475000  
453.500000	20.845000  
454.000000	20.648000  
454.500000	20.864000  
455.000000	21.923000  
455.500000	21.857000  
456.000000	22.425000  
456.500000	23.220000  
457.000000	22.613000  
457.500000	22.770000  
458.000000	22.523000  
458.500000	22.768000  
459.000000	22.219000  
459.500000	22.341000  
460.000000	21.940000  
460.500000	21.813000  
461.000000	21.039000  
461.500000	20.370000  
462.000000	19.508000  
462.500000	18.639000  
463.000000	18.151000  
463.500000	17.951000  
464.000000	16.826000  
464.500000	15.881000  
465.000000	15.364000  
465.500000	14.871000  
466.000000	14.179000  
466.500000	12.903000  
467.000000	11.617000  
467.500000	11.001000  
468.000000	10.102000  
468.500000	9.835000   
469.000000	8.723000   
469.500000	8.003000   
470.000000	7.361000   
470.500000	6.885000   
471.000000	6.341000   
471.500000	5.667000   
472.000000	5.158000   
472.500000	4.683000   
473.000000	3.880000   
473.500000	3.686000   
474.000000	3.412000   
474.500000	3.153000   
475.000000	2.853000   
475.500000	2.595000   
476.000000	2.345000   
476.500000	2.169000   
477.000000	1.966000   
477.500000	1.617000   
478.000000	1.436000   
478.500000	1.224000   
479.000000	1.240000   
479.500000	1.131000   
480.000000	1.108000   
480.500000	1.041000   
481.000000	0.910000   
481.500000	0.751000   
482.000000	0.734000   
482.500000	0.706000   
483.000000	0.750000   
483.500000	0.797000   
484.000000	0.586000   
484.500000	0.575000   
485.000000	0.686000   
485.500000	0.616000   
486.000000	0.636000   
486.500000	0.735000   
487.000000	0.653000   
487.500000	0.483000   
488.000000	0.460000   
488.500000	0.414000   
489.000000	0.455000   
489.500000	0.488000   
490.000000	0.556000   
490.500000	0.588000   
491.000000	0.569000   
491.500000	0.562000   
492.000000	0.390000   
492.500000	0.549000   
493.000000	0.456000   
493.500000	0.434000   
494.000000	0.486000   
494.500000	0.502000   
495.000000	0.507000   
495.500000	0.511000   
496.000000	0.513000   
496.500000	0.445000   
497.000000	0.470000   
497.500000	0.462000   
498.000000	0.410000   
498.500000	0.418000   
499.000000	0.484000   
499.500000	0.345000   
500.000000	0.417000   
500.500000	0.366000   
501.000000	0.314000   
501.500000	0.355000   
502.000000	0.334000   
502.500000	0.365000   
503.000000	0.424000   
503.500000	0.365000   
504.000000	0.339000   
504.500000	0.301000   
505.000000	0.237000   
505.500000	0.246000   
506.000000	0.361000   
506.500000	0.380000   
507.000000	0.306000   
507.500000	0.233000   
508.000000	0.314000   
508.500000	0.373000   
509.000000	0.226000   
509.500000	0.222000   
510.000000	0.318000   
510.500000	0.205000   
511.000000	0.196000   
511.500000	0.202000   
512.000000	0.346000   
512.500000	0.351000   
513.000000	0.284000   
513.500000	0.293000   
514.000000	0.323000   
514.500000	0.245000   
515.000000	0.286000   
515.500000	0.306000   
516.000000	0.311000   
516.500000	0.321000   
517.000000	0.236000   
517.500000	0.250000   
518.000000	0.203000   
518.500000	0.255000   
519.000000	0.255000   
519.500000	0.200000   
520.000000	0.271000   
520.500000	0.292000   
521.000000	0.294000   
521.500000	0.256000   
522.000000	0.310000   
522.500000	0.301000   
523.000000	0.318000   
523.500000	0.316000   
524.000000	0.255000   
524.500000	0.385000   
525.000000	0.325000   
525.500000	0.212000   
526.000000	0.205000   
526.500000	0.257000   
527.000000	0.283000   
527.500000	0.175000   
528.000000	0.218000   
528.500000	0.305000   
529.000000	0.271000   
529.500000	0.322000   
530.000000	0.325000   
530.500000	0.230000   
531.000000	0.261000   
531.500000	0.247000   
532.000000	0.247000   
532.500000	0.205000   
533.000000	0.294000   
533.500000	0.242000   
534.000000	0.238000   
534.500000	0.311000   
535.000000	0.282000   
535.500000	0.231000   
536.000000	0.170000   
536.500000	0.231000   
537.000000	0.250000   
537.500000	0.192000   
538.000000	0.192000   
538.500000	0.277000   
539.000000	0.290000   
539.500000	0.219000   
540.000000	0.237000   
540.500000	0.232000   
541.000000	0.216000   
541.500000	0.291000   
542.000000	0.290000   
542.500000	0.195000   
543.000000	0.236000   
543.500000	0.246000   
544.000000	0.186000   
544.500000	0.291000   
545.000000	0.230000   
545.500000	0.200000   
546.000000	0.207000   
546.500000	0.199000   
547.000000	0.172000   
547.500000	0.252000   
548.000000	0.183000   
548.500000	0.183000   

