PE FL                   SPECTRUM    ASCII       PEDS        1.60        
  -1
0178F9~1.SP
19/01/24
10:28:38.00
19/01/24
10:28:38.00


548.500000
1









LS45
340.00
10.00
10.00
SCAN
1
16
100
100
0
600
0
1
0
1
7
ON
435 365 
0 0 0
#HDR
-1
-1
#GR
NM
INT 
0.00002384185791015625
0.0
230.000000
0.500000
638
8
540.041000
0.099000
#DATA
230.000000	0.203000   
230.500000	0.108000   
231.000000	0.167000   
231.500000	0.138000   
232.000000	0.174000   
232.500000	0.247000   
233.000000	0.216000   
233.500000	0.191000   
234.000000	0.157000   
234.500000	0.193000   
235.000000	0.173000   
235.500000	0.139000   
236.000000	0.108000   
236.500000	0.099000   
237.000000	0.204000   
237.500000	0.268000   
238.000000	0.169000   
238.500000	0.193000   
239.000000	0.137000   
239.500000	0.157000   
240.000000	0.186000   
240.500000	0.217000   
241.000000	0.171000   
241.500000	0.147000   
242.000000	0.237000   
242.500000	0.203000   
243.000000	0.126000   
243.500000	0.170000   
244.000000	0.211000   
244.500000	0.262000   
245.000000	0.169000   
245.500000	0.164000   
246.000000	0.193000   
246.500000	0.142000   
247.000000	0.136000   
247.500000	0.239000   
248.000000	0.184000   
248.500000	0.207000   
249.000000	0.135000   
249.500000	0.166000   
250.000000	0.196000   
250.500000	0.186000   
251.000000	0.210000   
251.500000	0.162000   
252.000000	0.192000   
252.500000	0.190000   
253.000000	0.187000   
253.500000	0.243000   
254.000000	0.277000   
254.500000	0.221000   
255.000000	0.181000   
255.500000	0.260000   
256.000000	0.275000   
256.500000	0.315000   
257.000000	0.342000   
257.500000	0.211000   
258.000000	0.219000   
258.500000	0.260000   
259.000000	0.289000   
259.500000	0.257000   
260.000000	0.188000   
260.500000	0.222000   
261.000000	0.219000   
261.500000	0.127000   
262.000000	0.271000   
262.500000	0.224000   
263.000000	0.312000   
263.500000	0.402000   
264.000000	0.269000   
264.500000	0.290000   
265.000000	0.326000   
265.500000	0.312000   
266.000000	0.335000   
266.500000	0.256000   
267.000000	0.249000   
267.500000	0.297000   
268.000000	0.280000   
268.500000	0.392000   
269.000000	0.386000   
269.500000	0.298000   
270.000000	0.358000   
270.500000	0.350000   
271.000000	0.294000   
271.500000	0.352000   
272.000000	0.408000   
272.500000	0.374000   
273.000000	0.434000   
273.500000	0.373000   
274.000000	0.370000   
274.500000	0.377000   
275.000000	0.501000   
275.500000	0.442000   
276.000000	0.399000   
276.500000	0.375000   
277.000000	0.378000   
277.500000	0.367000   
278.000000	0.408000   
278.500000	0.352000   
279.000000	0.467000   
279.500000	0.405000   
280.000000	0.399000   
280.500000	0.404000   
281.000000	0.404000   
281.500000	0.401000   
282.000000	0.449000   
282.500000	0.514000   
283.000000	0.497000   
283.500000	0.354000   
284.000000	0.408000   
284.500000	0.400000   
285.000000	0.409000   
285.500000	0.478000   
286.000000	0.555000   
286.500000	0.559000   
287.000000	0.479000   
287.500000	0.567999   
288.000000	0.469000   
288.500000	0.591000   
289.000000	0.600000   
289.500000	0.562000   
290.000000	0.740000   
290.500000	0.676000   
291.000000	0.617000   
291.500000	0.585000   
292.000000	0.682000   
292.500000	0.628000   
293.000000	0.626000   
293.500000	0.597000   
294.000000	0.736000   
294.500000	0.705000   
295.000000	0.838000   
295.500000	0.862000   
296.000000	0.867000   
296.500000	0.879000   
297.000000	0.901000   
297.500000	0.858000   
298.000000	0.823000   
298.500000	0.963000   
299.000000	1.170000   
299.500000	1.248000   
300.000000	1.116000   
300.500000	1.093000   
301.000000	1.121000   
301.500000	1.133000   
302.000000	1.069000   
302.500000	1.100000   
303.000000	1.076000   
303.500000	1.260000   
304.000000	1.208000   
304.500000	1.103000   
305.000000	1.284000   
305.500000	1.411000   
306.000000	1.546000   
306.500000	1.675000   
307.000000	1.623000   
307.500000	1.444000   
308.000000	1.570000   
308.500000	1.658000   
309.000000	1.568000   
309.500000	1.617000   
310.000000	1.713000   
310.500000	2.005000   
311.000000	1.943000   
311.500000	1.983000   
312.000000	1.957000   
312.500000	2.013000   
313.000000	2.178000   
313.500000	2.128000   
314.000000	2.306000   
314.500000	2.225000   
315.000000	2.236000   
315.500000	2.410000   
316.000000	2.805000   
316.500000	3.041000   
317.000000	3.452000   
317.500000	3.644000   
318.000000	4.297000   
318.500000	5.445000   
319.000000	6.673000   
319.500000	8.145000   
320.000000	10.327000  
320.500000	13.600000  
321.000000	16.730000  
321.500000	21.469000  
322.000000	27.031000  
322.500000	33.150000  
323.000000	42.069000  
323.500000	51.276000  
324.000000	64.526000  
324.500000	76.712000  
325.000000	90.568000  
325.500000	103.269000 
326.000000	121.353000 
326.500000	137.017000 
327.000000	159.661000 
327.500000	179.531000 
328.000000	205.063000 
328.500000	229.552000 
329.000000	257.274000 
329.500000	285.302000 
330.000000	313.349000 
330.500000	340.677000 
331.000000	359.643000 
331.500000	388.711000 
332.000000	417.590000 
332.500000	440.738000 
333.000000	461.343000 
333.500000	480.564000 
334.000000	494.417000 
334.500000	508.437000 
335.000000	518.436000 
335.500000	527.102000 
336.000000	536.493000 
336.500000	535.440000 
337.000000	540.041000 
337.500000	531.922000 
338.000000	527.304000 
338.500000	513.408000 
339.000000	506.846000 
339.500000	489.106000 
340.000000	473.288000 
340.500000	455.523000 
341.000000	431.557000 
341.500000	404.955000 
342.000000	383.128000 
342.500000	360.795000 
343.000000	335.815000 
343.500000	313.856000 
344.000000	284.459000 
344.500000	256.894000 
345.000000	231.925000 
345.500000	212.840000 
346.000000	183.776000 
346.500000	162.773000 
347.000000	140.244000 
347.500000	123.963000 
348.000000	106.890000 
348.500000	94.461000  
349.000000	77.116000  
349.500000	66.681000  
350.000000	54.125000  
350.500000	44.985000  
351.000000	34.769000  
351.500000	29.086000  
352.000000	24.099000  
352.500000	20.630000  
353.000000	16.884000  
353.500000	13.826000  
354.000000	11.911000  
354.500000	10.071000  
355.000000	9.116000   
355.500000	7.925000   
356.000000	7.619000   
356.500000	6.980000   
357.000000	6.428000   
357.500000	6.206000   
358.000000	5.912000   
358.500000	6.538000   
359.000000	6.173000   
359.500000	6.723000   
360.000000	6.606000   
360.500000	6.814000   
361.000000	7.075000   
361.500000	7.695000   
362.000000	7.578000   
362.500000	8.352000   
363.000000	8.965000   
363.500000	10.102000  
364.000000	11.032000  
364.500000	11.913000  
365.000000	13.004000  
365.500000	14.551000  
366.000000	15.905000  
366.500000	16.535000  
367.000000	19.074000  
367.500000	21.031000  
368.000000	23.795000  
368.500000	25.329000  
369.000000	28.527000  
369.500000	30.778000  
370.000000	34.694000  
370.500000	37.036000  
371.000000	39.816000  
371.500000	42.907000  
372.000000	46.621000  
372.500000	48.792000  
373.000000	52.535000  
373.500000	55.245000  
374.000000	58.582000  
374.500000	62.054000  
375.000000	64.592000  
375.500000	68.236000  
376.000000	70.253000  
376.500000	71.723000  
377.000000	73.492999  
377.500000	74.074000  
378.000000	77.271000  
378.500000	78.480000  
379.000000	80.152000  
379.500000	79.793000  
380.000000	79.950999  
380.500000	78.227999  
381.000000	78.447000  
381.500000	78.834000  
382.000000	78.351000  
382.500000	74.881000  
383.000000	74.911000  
383.500000	74.059000  
384.000000	70.175000  
384.500000	67.114999  
385.000000	65.055000  
385.500000	62.871000  
386.000000	60.377000  
386.500000	57.315000  
387.000000	54.714000  
387.500000	51.532000  
388.000000	48.397000  
388.500000	45.751000  
389.000000	42.391000  
389.500000	39.587000  
390.000000	36.185000  
390.500000	35.101000  
391.000000	31.565000  
391.500000	28.850000  
392.000000	26.266000  
392.500000	23.764000  
393.000000	21.542000  
393.500000	17.819000  
394.000000	16.473000  
394.500000	15.309000  
395.000000	13.921000  
395.500000	11.633000  
396.000000	9.736000   
396.500000	8.653000   
397.000000	7.826000   
397.500000	6.766000   
398.000000	6.181000   
398.500000	5.157000   
399.000000	4.983000   
399.500000	3.988000   
400.000000	3.958000   
400.500000	3.804000   
401.000000	3.227000   
401.500000	3.066000   
402.000000	2.587000   
402.500000	2.532000   
403.000000	2.209000   
403.500000	2.043000   
404.000000	2.247000   
404.500000	1.971000   
405.000000	1.819000   
405.500000	1.828000   
406.000000	1.822000   
406.500000	1.786000   
407.000000	1.570000   
407.500000	1.486000   
408.000000	1.583000   
408.500000	1.610000   
409.000000	1.627000   
409.500000	1.338000   
410.000000	1.408000   
410.500000	1.607000   
411.000000	1.663000   
411.500000	1.411000   
412.000000	1.375000   
412.500000	1.384000   
413.000000	1.310000   
413.500000	1.292000   
414.000000	1.224000   
414.500000	1.099000   
415.000000	1.090000   
415.500000	1.326000   
416.000000	1.213000   
416.500000	0.985000   
417.000000	1.071000   
417.500000	1.198000   
418.000000	1.308000   
418.500000	1.123000   
419.000000	0.961000   
419.500000	1.185000   
420.000000	1.178000   
420.500000	1.231000   
421.000000	1.211000   
421.500000	1.150000   
422.000000	1.049000   
422.500000	1.110000   
423.000000	1.041000   
423.500000	1.158000   
424.000000	1.166000   
424.500000	0.944000   
425.000000	1.009000   
425.500000	1.013000   
426.000000	1.136000   
426.500000	1.177000   
427.000000	1.112000   
427.500000	1.044000   
428.000000	0.877000   
428.500000	1.020000   
429.000000	1.018000   
429.500000	1.155000   
430.000000	1.065000   
430.500000	0.982000   
431.000000	0.965000   
431.500000	1.088000   
432.000000	1.105000   
432.500000	0.952000   
433.000000	0.853000   
433.500000	0.981000   
434.000000	1.024000   
434.500000	1.135000   
435.000000	1.026000   
435.500000	1.046000   
436.000000	0.976000   
436.500000	1.085000   
437.000000	1.005000   
437.500000	0.898000   
438.000000	1.059000   
438.500000	1.109000   
439.000000	0.852000   
439.500000	0.968000   
440.000000	1.206000   
440.500000	0.911000   
441.000000	1.017000   
441.500000	0.996000   
442.000000	1.112000   
442.500000	1.107000   
443.000000	0.925000   
443.500000	1.030000   
444.000000	0.906000   
444.500000	0.945000   
445.000000	0.866000   
445.500000	0.810000   
446.000000	0.898000   
446.500000	0.990000   
447.000000	0.961000   
447.500000	1.062000   
448.000000	0.858000   
448.500000	0.980000   
449.000000	0.868000   
449.500000	1.023000   
450.000000	0.910000   
450.500000	1.011000   
451.000000	0.940999   
451.500000	1.016000   
452.000000	0.935000   
452.500000	1.070000   
453.000000	1.254000   
453.500000	1.108000   
454.000000	1.092000   
454.500000	1.141000   
455.000000	0.912000   
455.500000	0.887000   
456.000000	0.795000   
456.500000	0.758000   
457.000000	1.055000   
457.500000	1.004000   
458.000000	0.796000   
458.500000	0.923000   
459.000000	0.765000   
459.500000	0.789000   
460.000000	0.881000   
460.500000	0.774000   
461.000000	0.932000   
461.500000	0.983000   
462.000000	0.872000   
462.500000	0.899000   
463.000000	0.894000   
463.500000	0.684000   
464.000000	0.717000   
464.500000	0.732000   
465.000000	0.834000   
465.500000	0.909000   
466.000000	0.790000   
466.500000	0.921000   
467.000000	0.790000   
467.500000	0.884000   
468.000000	0.777000   
468.500000	0.774000   
469.000000	0.625000   
469.500000	0.748000   
470.000000	0.747000   
470.500000	0.710000   
471.000000	0.954000   
471.500000	0.902000   
472.000000	0.549000   
472.500000	0.694000   
473.000000	0.713000   
473.500000	0.620000   
474.000000	0.764000   
474.500000	0.832000   
475.000000	0.740000   
475.500000	0.767000   
476.000000	0.634000   
476.500000	0.711000   
477.000000	0.770000   
477.500000	0.669000   
478.000000	0.765000   
478.500000	0.671000   
479.000000	0.690999   
479.500000	0.681000   
480.000000	0.718000   
480.500000	0.828000   
481.000000	0.779000   
481.500000	0.710000   
482.000000	0.624000   
482.500000	0.681000   
483.000000	0.750000   
483.500000	0.812000   
484.000000	0.813999   
484.500000	0.875000   
485.000000	0.812999   
485.500000	0.852000   
486.000000	0.724000   
486.500000	0.857000   
487.000000	0.673000   
487.500000	0.577000   
488.000000	0.638000   
488.500000	0.639000   
489.000000	0.729000   
489.500000	0.535000   
490.000000	0.738000   
490.500000	0.781000   
491.000000	0.874000   
491.500000	0.720000   
492.000000	0.742000   
492.500000	0.871000   
493.000000	0.847000   
493.500000	0.905000   
494.000000	0.912000   
494.500000	0.682000   
495.000000	0.781000   
495.500000	0.795000   
496.000000	1.084000   
496.500000	0.812000   
497.000000	0.733000   
497.500000	0.777000   
498.000000	0.725000   
498.500000	0.653000   
499.000000	0.717000   
499.500000	0.730000   
500.000000	0.721000   
500.500000	0.667000   
501.000000	0.752000   
501.500000	0.752000   
502.000000	0.643000   
502.500000	0.743000   
503.000000	0.612000   
503.500000	0.714000   
504.000000	0.684000   
504.500000	0.592000   
505.000000	0.670000   
505.500000	0.664000   
506.000000	0.631000   
506.500000	0.500000   
507.000000	0.574000   
507.500000	0.522000   
508.000000	0.548000   
508.500000	0.620000   
509.000000	0.624000   
509.500000	0.535000   
510.000000	0.656000   
510.500000	0.710000   
511.000000	0.653000   
511.500000	0.599000   
512.000000	0.682000   
512.500000	0.703000   
513.000000	0.604000   
513.500000	0.522000   
514.000000	0.549000   
514.500000	0.698000   
515.000000	0.625000   
515.500000	0.572000   
516.000000	0.746000   
516.500000	0.614000   
517.000000	0.541000   
517.500000	0.538000   
518.000000	0.690999   
518.500000	0.730000   
519.000000	0.598000   
519.500000	0.585000   
520.000000	0.551000   
520.500000	0.634000   
521.000000	0.680000   
521.500000	0.656000   
522.000000	0.642000   
522.500000	0.589000   
523.000000	0.517000   
523.500000	0.672000   
524.000000	0.677000   
524.500000	0.540000   
525.000000	0.558000   
525.500000	0.608000   
526.000000	0.697000   
526.500000	0.625000   
527.000000	0.575000   
527.500000	0.545000   
528.000000	0.424000   
528.500000	0.492000   
529.000000	0.496000   
529.500000	0.640000   
530.000000	0.600000   
530.500000	0.512000   
531.000000	0.390000   
531.500000	0.427000   
532.000000	0.456000   
532.500000	0.470000   
533.000000	0.504000   
533.500000	0.477000   
534.000000	0.506000   
534.500000	0.598000   
535.000000	0.522000   
535.500000	0.453000   
536.000000	0.468000   
536.500000	0.558000   
537.000000	0.611000   
537.500000	0.408000   
538.000000	0.344000   
538.500000	0.467000   
539.000000	0.481000   
539.500000	0.447000   
540.000000	0.607000   
540.500000	0.545000   
541.000000	0.459000   
541.500000	0.605000   
542.000000	0.424000   
542.500000	0.448000   
543.000000	0.408000   
543.500000	0.600000   
544.000000	0.516000   
544.500000	0.557000   
545.000000	0.519000   
545.500000	0.431000   
546.000000	0.393000   
546.500000	0.514000   
547.000000	0.460000   
547.500000	0.459000   
548.000000	0.392000   
548.500000	0.420000   

