PE FL                   SPECTRUM    ASCII       PEDS        1.60        
  -1
0124DI~2.SP
19/01/24
10:53:30.00
19/01/24
10:53:30.00


548.500000
1









LS45
505.00
10.00
10.00
SCAN
1
16
100
100
0
600
0
1
0
1
7
ON
435 365 
0 0 0
#HDR
-1
-1
#GR
NM
INT 
0.00002384185791015625
0.0
230.000000
0.500000
638
8
126.752000
0.007000
#DATA
230.000000	0.035000   
230.500000	0.020000   
231.000000	0.032000   
231.500000	0.026000   
232.000000	0.034000   
232.500000	0.029000   
233.000000	0.014000   
233.500000	0.019000   
234.000000	0.061000   
234.500000	0.029000   
235.000000	0.023000   
235.500000	0.050000   
236.000000	0.066000   
236.500000	0.122000   
237.000000	0.127000   
237.500000	0.215000   
238.000000	0.243000   
238.500000	0.258000   
239.000000	0.350000   
239.500000	0.425000   
240.000000	0.454000   
240.500000	0.563999   
241.000000	0.666000   
241.500000	0.710000   
242.000000	0.799000   
242.500000	0.970000   
243.000000	1.072000   
243.500000	1.121000   
244.000000	1.272000   
244.500000	1.432000   
245.000000	1.545000   
245.500000	1.682000   
246.000000	1.763000   
246.500000	1.792000   
247.000000	1.994000   
247.500000	1.963000   
248.000000	1.932000   
248.500000	2.149000   
249.000000	2.226000   
249.500000	1.932000   
250.000000	2.014000   
250.500000	2.054000   
251.000000	1.831000   
251.500000	1.880000   
252.000000	1.807000   
252.500000	1.993000   
253.000000	1.811000   
253.500000	1.658000   
254.000000	1.518000   
254.500000	1.377000   
255.000000	1.654000   
255.500000	1.345000   
256.000000	1.157000   
256.500000	0.946000   
257.000000	1.051000   
257.500000	0.890000   
258.000000	0.802000   
258.500000	0.575000   
259.000000	0.516000   
259.500000	0.460000   
260.000000	0.469000   
260.500000	0.447000   
261.000000	0.477000   
261.500000	0.484000   
262.000000	0.370000   
262.500000	0.421000   
263.000000	0.521000   
263.500000	0.567999   
264.000000	0.421000   
264.500000	0.529000   
265.000000	0.630000   
265.500000	0.823000   
266.000000	0.629000   
266.500000	0.688999   
267.000000	0.837000   
267.500000	1.204000   
268.000000	1.226000   
268.500000	1.088000   
269.000000	1.134000   
269.500000	1.228000   
270.000000	1.228000   
270.500000	1.327000   
271.000000	1.335000   
271.500000	1.364000   
272.000000	1.198000   
272.500000	1.342000   
273.000000	1.356000   
273.500000	1.335000   
274.000000	1.052000   
274.500000	1.145000   
275.000000	1.248000   
275.500000	1.222000   
276.000000	1.049000   
276.500000	1.047000   
277.000000	0.917000   
277.500000	0.962000   
278.000000	0.828000   
278.500000	0.753000   
279.000000	0.841000   
279.500000	0.803000   
280.000000	0.829000   
280.500000	0.611000   
281.000000	0.441000   
281.500000	0.320000   
282.000000	0.431000   
282.500000	0.444000   
283.000000	0.235000   
283.500000	0.269000   
284.000000	0.275000   
284.500000	0.135000   
285.000000	0.204000   
285.500000	0.183000   
286.000000	0.170000   
286.500000	0.114000   
287.000000	0.165000   
287.500000	0.119000   
288.000000	0.075000   
288.500000	0.082000   
289.000000	0.007000   
289.500000	0.039000   
290.000000	0.055000   
290.500000	0.061000   
291.000000	0.055000   
291.500000	0.032000   
292.000000	0.038000   
292.500000	0.014000   
293.000000	0.062000   
293.500000	0.052000   
294.000000	0.083000   
294.500000	0.074000   
295.000000	0.044000   
295.500000	0.062000   
296.000000	0.071999   
296.500000	0.085999   
297.000000	0.083000   
297.500000	0.085999   
298.000000	0.080000   
298.500000	0.042000   
299.000000	0.110000   
299.500000	0.082000   
300.000000	0.064000   
300.500000	0.069000   
301.000000	0.111000   
301.500000	0.071999   
302.000000	0.061000   
302.500000	0.076000   
303.000000	0.103000   
303.500000	0.090000   
304.000000	0.061000   
304.500000	0.093000   
305.000000	0.056000   
305.500000	0.044000   
306.000000	0.075000   
306.500000	0.077000   
307.000000	0.067000   
307.500000	0.111000   
308.000000	0.089000   
308.500000	0.104000   
309.000000	0.097000   
309.500000	0.116000   
310.000000	0.069000   
310.500000	0.081000   
311.000000	0.083000   
311.500000	0.050000   
312.000000	0.074000   
312.500000	0.064000   
313.000000	0.063000   
313.500000	0.084000   
314.000000	0.070000   
314.500000	0.095000   
315.000000	0.091000   
315.500000	0.076000   
316.000000	0.059000   
316.500000	0.083000   
317.000000	0.042000   
317.500000	0.077000   
318.000000	0.098000   
318.500000	0.055000   
319.000000	0.071999   
319.500000	0.079000   
320.000000	0.117000   
320.500000	0.090000   
321.000000	0.062000   
321.500000	0.102000   
322.000000	0.076000   
322.500000	0.062000   
323.000000	0.103000   
323.500000	0.067000   
324.000000	0.092000   
324.500000	0.104000   
325.000000	0.079000   
325.500000	0.038000   
326.000000	0.070000   
326.500000	0.085000   
327.000000	0.083000   
327.500000	0.090000   
328.000000	0.112000   
328.500000	0.104000   
329.000000	0.083000   
329.500000	0.047000   
330.000000	0.094000   
330.500000	0.080000   
331.000000	0.087999   
331.500000	0.054000   
332.000000	0.116000   
332.500000	0.075000   
333.000000	0.095000   
333.500000	0.076000   
334.000000	0.080000   
334.500000	0.104000   
335.000000	0.126000   
335.500000	0.085999   
336.000000	0.085000   
336.500000	0.093000   
337.000000	0.075000   
337.500000	0.096000   
338.000000	0.067000   
338.500000	0.071999   
339.000000	0.095000   
339.500000	0.102000   
340.000000	0.099000   
340.500000	0.076000   
341.000000	0.110000   
341.500000	0.081000   
342.000000	0.128000   
342.500000	0.137000   
343.000000	0.069000   
343.500000	0.073000   
344.000000	0.050000   
344.500000	0.084000   
345.000000	0.105000   
345.500000	0.092000   
346.000000	0.116000   
346.500000	0.141000   
347.000000	0.086999   
347.500000	0.062000   
348.000000	0.065000   
348.500000	0.069000   
349.000000	0.064000   
349.500000	0.084000   
350.000000	0.060000   
350.500000	0.111000   
351.000000	0.149000   
351.500000	0.068000   
352.000000	0.070000   
352.500000	0.089000   
353.000000	0.130000   
353.500000	0.094000   
354.000000	0.085000   
354.500000	0.062000   
355.000000	0.111000   
355.500000	0.112000   
356.000000	0.091000   
356.500000	0.070999   
357.000000	0.128000   
357.500000	0.086999   
358.000000	0.089000   
358.500000	0.033000   
359.000000	0.106000   
359.500000	0.105000   
360.000000	0.090000   
360.500000	0.105000   
361.000000	0.117000   
361.500000	0.135000   
362.000000	0.107000   
362.500000	0.119000   
363.000000	0.085000   
363.500000	0.106000   
364.000000	0.134000   
364.500000	0.121000   
365.000000	0.078000   
365.500000	0.120000   
366.000000	0.118000   
366.500000	0.125000   
367.000000	0.134000   
367.500000	0.124000   
368.000000	0.108000   
368.500000	0.065000   
369.000000	0.098000   
369.500000	0.151000   
370.000000	0.111000   
370.500000	0.116000   
371.000000	0.123000   
371.500000	0.131000   
372.000000	0.137000   
372.500000	0.108000   
373.000000	0.140000   
373.500000	0.144000   
374.000000	0.114000   
374.500000	0.130000   
375.000000	0.101000   
375.500000	0.094000   
376.000000	0.086999   
376.500000	0.099000   
377.000000	0.094000   
377.500000	0.110000   
378.000000	0.089000   
378.500000	0.112000   
379.000000	0.128000   
379.500000	0.126000   
380.000000	0.123000   
380.500000	0.129000   
381.000000	0.101000   
381.500000	0.096000   
382.000000	0.079000   
382.500000	0.097000   
383.000000	0.096000   
383.500000	0.124000   
384.000000	0.079000   
384.500000	0.095000   
385.000000	0.132000   
385.500000	0.114000   
386.000000	0.109000   
386.500000	0.104000   
387.000000	0.090000   
387.500000	0.097000   
388.000000	0.081000   
388.500000	0.089000   
389.000000	0.124000   
389.500000	0.073000   
390.000000	0.105000   
390.500000	0.108000   
391.000000	0.079000   
391.500000	0.121000   
392.000000	0.090000   
392.500000	0.095000   
393.000000	0.148000   
393.500000	0.116000   
394.000000	0.107000   
394.500000	0.115000   
395.000000	0.104000   
395.500000	0.142000   
396.000000	0.120000   
396.500000	0.120000   
397.000000	0.120000   
397.500000	0.092000   
398.000000	0.107000   
398.500000	0.129000   
399.000000	0.141000   
399.500000	0.098000   
400.000000	0.079000   
400.500000	0.119000   
401.000000	0.140000   
401.500000	0.146000   
402.000000	0.106000   
402.500000	0.109000   
403.000000	0.094000   
403.500000	0.124000   
404.000000	0.090000   
404.500000	0.122000   
405.000000	0.125000   
405.500000	0.080000   
406.000000	0.098000   
406.500000	0.106000   
407.000000	0.124000   
407.500000	0.128000   
408.000000	0.105000   
408.500000	0.123000   
409.000000	0.117000   
409.500000	0.090000   
410.000000	0.142000   
410.500000	0.095000   
411.000000	0.123000   
411.500000	0.105000   
412.000000	0.123000   
412.500000	0.143000   
413.000000	0.131000   
413.500000	0.115000   
414.000000	0.120000   
414.500000	0.139000   
415.000000	0.125000   
415.500000	0.094000   
416.000000	0.090000   
416.500000	0.185000   
417.000000	0.156000   
417.500000	0.110000   
418.000000	0.144000   
418.500000	0.173000   
419.000000	0.132000   
419.500000	0.184000   
420.000000	0.147000   
420.500000	0.151000   
421.000000	0.094000   
421.500000	0.139000   
422.000000	0.165000   
422.500000	0.172000   
423.000000	0.107000   
423.500000	0.150000   
424.000000	0.160000   
424.500000	0.129000   
425.000000	0.162000   
425.500000	0.159000   
426.000000	0.166000   
426.500000	0.135000   
427.000000	0.190000   
427.500000	0.196000   
428.000000	0.115000   
428.500000	0.133000   
429.000000	0.131000   
429.500000	0.137000   
430.000000	0.116000   
430.500000	0.141000   
431.000000	0.147000   
431.500000	0.129000   
432.000000	0.166000   
432.500000	0.157000   
433.000000	0.225000   
433.500000	0.172000   
434.000000	0.203000   
434.500000	0.202000   
435.000000	0.168000   
435.500000	0.165000   
436.000000	0.189000   
436.500000	0.119000   
437.000000	0.173000   
437.500000	0.219000   
438.000000	0.128000   
438.500000	0.195000   
439.000000	0.178000   
439.500000	0.177000   
440.000000	0.185000   
440.500000	0.213000   
441.000000	0.249000   
441.500000	0.178000   
442.000000	0.147000   
442.500000	0.189000   
443.000000	0.198000   
443.500000	0.210000   
444.000000	0.124000   
444.500000	0.136000   
445.000000	0.174000   
445.500000	0.224000   
446.000000	0.252000   
446.500000	0.206000   
447.000000	0.191000   
447.500000	0.222000   
448.000000	0.291000   
448.500000	0.213000   
449.000000	0.215000   
449.500000	0.265000   
450.000000	0.329000   
450.500000	0.247000   
451.000000	0.257000   
451.500000	0.348000   
452.000000	0.272000   
452.500000	0.309000   
453.000000	0.300000   
453.500000	0.257000   
454.000000	0.253000   
454.500000	0.291000   
455.000000	0.255000   
455.500000	0.394000   
456.000000	0.390000   
456.500000	0.370000   
457.000000	0.388000   
457.500000	0.396000   
458.000000	0.300000   
458.500000	0.295000   
459.000000	0.350000   
459.500000	0.394000   
460.000000	0.318000   
460.500000	0.325000   
461.000000	0.371000   
461.500000	0.310000   
462.000000	0.329000   
462.500000	0.262000   
463.000000	0.336000   
463.500000	0.370000   
464.000000	0.363000   
464.500000	0.331000   
465.000000	0.378000   
465.500000	0.312000   
466.000000	0.260000   
466.500000	0.326000   
467.000000	0.380000   
467.500000	0.439000   
468.000000	0.376000   
468.500000	0.359000   
469.000000	0.376000   
469.500000	0.355000   
470.000000	0.392000   
470.500000	0.291000   
471.000000	0.363000   
471.500000	0.432000   
472.000000	0.417000   
472.500000	0.535000   
473.000000	0.475000   
473.500000	0.501000   
474.000000	0.406000   
474.500000	0.396000   
475.000000	0.564999   
475.500000	0.521000   
476.000000	0.426000   
476.500000	0.454000   
477.000000	0.450000   
477.500000	0.580000   
478.000000	0.593000   
478.500000	0.545000   
479.000000	0.631000   
479.500000	0.654000   
480.000000	0.677000   
480.500000	0.609000   
481.000000	0.680000   
481.500000	0.851000   
482.000000	1.198000   
482.500000	1.280000   
483.000000	1.267000   
483.500000	1.880000   
484.000000	2.825000   
484.500000	3.333000   
485.000000	4.200000   
485.500000	5.788000   
486.000000	6.934000   
486.500000	9.183000   
487.000000	10.576000  
487.500000	13.277000  
488.000000	14.806000  
488.500000	19.317000  
489.000000	22.343000  
489.500000	26.985000  
490.000000	30.008000  
490.500000	35.649000  
491.000000	40.140000  
491.500000	46.602000  
492.000000	50.674000  
492.500000	55.843000  
493.000000	62.232000  
493.500000	69.688999  
494.000000	75.786000  
494.500000	84.546000  
495.000000	87.860000  
495.500000	92.581999  
496.000000	100.064000 
496.500000	103.673000 
497.000000	108.247000 
497.500000	113.264000 
498.000000	115.689000 
498.500000	120.425000 
499.000000	121.075000 
499.500000	122.620000 
500.000000	126.711000 
500.500000	126.752000 
501.000000	125.119000 
501.500000	125.212000 
502.000000	124.106000 
502.500000	120.447000 
503.000000	118.123000 
503.500000	114.179000 
504.000000	110.304000 
504.500000	108.516000 
505.000000	101.990000 
505.500000	96.183000  
506.000000	89.035000  
506.500000	84.398000  
507.000000	78.438000  
507.500000	72.659000  
508.000000	65.742999  
508.500000	61.307000  
509.000000	54.749000  
509.500000	49.149000  
510.000000	42.403000  
510.500000	38.614000  
511.000000	34.620000  
511.500000	30.651000  
512.000000	26.233000  
512.500000	22.287000  
513.000000	19.286000  
513.500000	16.443000  
514.000000	13.224000  
514.500000	11.236000  
515.000000	8.739000   
515.500000	7.294000   
516.000000	5.919000   
516.500000	4.673000   
517.000000	3.677000   
517.500000	3.032000   
518.000000	2.308000   
518.500000	2.078000   
519.000000	1.636000   
519.500000	1.372000   
520.000000	1.098000   
520.500000	1.084000   
521.000000	1.098000   
521.500000	0.823000   
522.000000	0.879000   
522.500000	0.768000   
523.000000	0.698000   
523.500000	0.729000   
524.000000	0.620000   
524.500000	0.590000   
525.000000	0.666000   
525.500000	0.743000   
526.000000	0.898000   
526.500000	0.658000   
527.000000	0.573000   
527.500000	0.539000   
528.000000	0.713000   
528.500000	0.669000   
529.000000	0.750000   
529.500000	0.726000   
530.000000	0.819000   
530.500000	0.745000   
531.000000	0.772000   
531.500000	0.860000   
532.000000	0.871000   
532.500000	0.878000   
533.000000	0.824000   
533.500000	1.109000   
534.000000	1.109000   
534.500000	1.329000   
535.000000	1.186000   
535.500000	1.409000   
536.000000	1.557000   
536.500000	1.620000   
537.000000	1.737000   
537.500000	1.904000   
538.000000	1.824000   
538.500000	2.074000   
539.000000	2.214000   
539.500000	2.586000   
540.000000	2.695000   
540.500000	2.812000   
541.000000	2.799000   
541.500000	2.787000   
542.000000	3.026000   
542.500000	3.076000   
543.000000	2.892000   
543.500000	3.251000   
544.000000	3.100000   
544.500000	3.188000   
545.000000	3.387000   
545.500000	3.299000   
546.000000	3.391000   
546.500000	3.692000   
547.000000	3.579000   
547.500000	3.236000   
548.000000	3.432000   
548.500000	3.324000   

