PE FL                   SPECTRUM    ASCII       PEDS        1.60        
  -1
0124DI~2.SP
19/01/24
10:30:53.00
19/01/24
10:30:53.00


548.500000
1









LS45
355.00
10.00
10.00
SCAN
1
16
100
100
0
600
0
1
0
1
7
ON
435 365 
0 0 0
#HDR
-1
-1
#GR
NM
INT 
0.00002384185791015625
0.0
230.000000
0.500000
638
8
499.247000
0.052000
#DATA
230.000000	0.052000   
230.500000	0.131000   
231.000000	0.077000   
231.500000	0.062000   
232.000000	0.156000   
232.500000	0.135000   
233.000000	0.125000   
233.500000	0.155000   
234.000000	0.134000   
234.500000	0.136000   
235.000000	0.224000   
235.500000	0.203000   
236.000000	0.089000   
236.500000	0.133000   
237.000000	0.066000   
237.500000	0.066000   
238.000000	0.129000   
238.500000	0.099000   
239.000000	0.138000   
239.500000	0.149000   
240.000000	0.134000   
240.500000	0.132000   
241.000000	0.121000   
241.500000	0.118000   
242.000000	0.140000   
242.500000	0.196000   
243.000000	0.130000   
243.500000	0.091000   
244.000000	0.131000   
244.500000	0.145000   
245.000000	0.145000   
245.500000	0.153000   
246.000000	0.101000   
246.500000	0.138000   
247.000000	0.193000   
247.500000	0.118000   
248.000000	0.167000   
248.500000	0.193000   
249.000000	0.114000   
249.500000	0.206000   
250.000000	0.097000   
250.500000	0.158000   
251.000000	0.170000   
251.500000	0.198000   
252.000000	0.146000   
252.500000	0.190000   
253.000000	0.173000   
253.500000	0.177000   
254.000000	0.201000   
254.500000	0.139000   
255.000000	0.160000   
255.500000	0.204000   
256.000000	0.219000   
256.500000	0.155000   
257.000000	0.171000   
257.500000	0.197000   
258.000000	0.143000   
258.500000	0.163000   
259.000000	0.203000   
259.500000	0.210000   
260.000000	0.266000   
260.500000	0.126000   
261.000000	0.152000   
261.500000	0.119000   
262.000000	0.160000   
262.500000	0.213000   
263.000000	0.133000   
263.500000	0.177000   
264.000000	0.139000   
264.500000	0.229000   
265.000000	0.207000   
265.500000	0.179000   
266.000000	0.102000   
266.500000	0.149000   
267.000000	0.227000   
267.500000	0.199000   
268.000000	0.199000   
268.500000	0.319000   
269.000000	0.203000   
269.500000	0.183000   
270.000000	0.237000   
270.500000	0.265000   
271.000000	0.281000   
271.500000	0.304000   
272.000000	0.276000   
272.500000	0.209000   
273.000000	0.178000   
273.500000	0.153000   
274.000000	0.190000   
274.500000	0.297000   
275.000000	0.283000   
275.500000	0.252000   
276.000000	0.183000   
276.500000	0.286000   
277.000000	0.304000   
277.500000	0.260000   
278.000000	0.251000   
278.500000	0.183000   
279.000000	0.282000   
279.500000	0.354000   
280.000000	0.358000   
280.500000	0.325000   
281.000000	0.298000   
281.500000	0.325000   
282.000000	0.300000   
282.500000	0.235000   
283.000000	0.317000   
283.500000	0.299000   
284.000000	0.367000   
284.500000	0.338000   
285.000000	0.359000   
285.500000	0.327000   
286.000000	0.320000   
286.500000	0.306000   
287.000000	0.370000   
287.500000	0.252000   
288.000000	0.209000   
288.500000	0.362000   
289.000000	0.328000   
289.500000	0.441000   
290.000000	0.425000   
290.500000	0.341000   
291.000000	0.326000   
291.500000	0.338000   
292.000000	0.356000   
292.500000	0.383000   
293.000000	0.270000   
293.500000	0.434000   
294.000000	0.534000   
294.500000	0.349000   
295.000000	0.426000   
295.500000	0.380000   
296.000000	0.339000   
296.500000	0.451000   
297.000000	0.514000   
297.500000	0.425000   
298.000000	0.350000   
298.500000	0.506000   
299.000000	0.401000   
299.500000	0.497000   
300.000000	0.536000   
300.500000	0.511000   
301.000000	0.577000   
301.500000	0.620000   
302.000000	0.418000   
302.500000	0.501000   
303.000000	0.531000   
303.500000	0.586000   
304.000000	0.570000   
304.500000	0.484000   
305.000000	0.462000   
305.500000	0.636000   
306.000000	0.588000   
306.500000	0.539000   
307.000000	0.638000   
307.500000	0.601000   
308.000000	0.605000   
308.500000	0.772000   
309.000000	0.720000   
309.500000	0.745000   
310.000000	0.683000   
310.500000	0.843000   
311.000000	0.866000   
311.500000	1.033000   
312.000000	0.947000   
312.500000	0.861000   
313.000000	0.857000   
313.500000	0.808000   
314.000000	0.901000   
314.500000	1.109000   
315.000000	0.989000   
315.500000	0.844000   
316.000000	0.977000   
316.500000	1.269000   
317.000000	1.031000   
317.500000	0.960000   
318.000000	1.125000   
318.500000	1.039000   
319.000000	1.417000   
319.500000	1.414000   
320.000000	1.138000   
320.500000	1.215000   
321.000000	1.252000   
321.500000	1.406000   
322.000000	1.306000   
322.500000	1.538000   
323.000000	1.497000   
323.500000	1.660000   
324.000000	1.569000   
324.500000	1.606000   
325.000000	1.595000   
325.500000	1.352000   
326.000000	1.731000   
326.500000	1.837000   
327.000000	1.912000   
327.500000	2.125000   
328.000000	1.905000   
328.500000	2.099000   
329.000000	2.111000   
329.500000	2.225000   
330.000000	2.439000   
330.500000	2.630000   
331.000000	2.694000   
331.500000	2.800000   
332.000000	3.627000   
332.500000	4.164000   
333.000000	5.113000   
333.500000	6.380000   
334.000000	7.871000   
334.500000	10.207000  
335.000000	11.855000  
335.500000	14.884000  
336.000000	17.829000  
336.500000	23.867000  
337.000000	28.546000  
337.500000	38.178000  
338.000000	44.980000  
338.500000	54.406000  
339.000000	64.363000  
339.500000	78.783000  
340.000000	91.560000  
340.500000	105.962000 
341.000000	120.364000 
341.500000	139.766000 
342.000000	159.304000 
342.500000	179.758000 
343.000000	196.504000 
343.500000	221.009000 
344.000000	247.478000 
344.500000	267.463000 
345.000000	293.481000 
345.500000	314.039000 
346.000000	344.195000 
346.500000	368.236000 
347.000000	391.751000 
347.500000	411.509000 
348.000000	429.431000 
348.500000	444.890000 
349.000000	461.308000 
349.500000	469.736000 
350.000000	481.345000 
350.500000	487.049000 
351.000000	496.531000 
351.500000	498.716000 
352.000000	499.247000 
352.500000	490.091000 
353.000000	485.176000 
353.500000	476.391000 
354.000000	462.109000 
354.500000	444.875000 
355.000000	427.910000 
355.500000	409.265000 
356.000000	388.335000 
356.500000	364.789000 
357.000000	345.116000 
357.500000	321.100000 
358.000000	300.314000 
358.500000	272.533000 
359.000000	251.527000 
359.500000	226.690000 
360.000000	206.185000 
360.500000	184.439000 
361.000000	167.435000 
361.500000	146.425000 
362.000000	129.741000 
362.500000	107.963000 
363.000000	96.053000  
363.500000	81.866000  
364.000000	71.623000  
364.500000	58.064000  
365.000000	49.803000  
365.500000	41.938000  
366.000000	33.334000  
366.500000	28.204000  
367.000000	23.486000  
367.500000	19.371000  
368.000000	14.713000  
368.500000	13.183000  
369.000000	9.871000   
369.500000	8.505000   
370.000000	7.577000   
370.500000	6.574000   
371.000000	5.941000   
371.500000	5.649000   
372.000000	5.358000   
372.500000	4.875000   
373.000000	5.294000   
373.500000	4.958000   
374.000000	4.658000   
374.500000	4.913000   
375.000000	4.647000   
375.500000	4.651000   
376.000000	4.381000   
376.500000	4.170000   
377.000000	4.052000   
377.500000	4.588000   
378.000000	4.685000   
378.500000	4.835000   
379.000000	4.536000   
379.500000	4.726000   
380.000000	4.985000   
380.500000	5.404000   
381.000000	5.674000   
381.500000	5.917000   
382.000000	6.229000   
382.500000	6.999000   
383.000000	7.368000   
383.500000	8.020000   
384.000000	9.025000   
384.500000	9.913000   
385.000000	10.756000  
385.500000	11.672000  
386.000000	14.030000  
386.500000	14.898000  
387.000000	16.208000  
387.500000	17.565000  
388.000000	19.313000  
388.500000	20.601000  
389.000000	23.188000  
389.500000	25.145000  
390.000000	27.144000  
390.500000	28.741000  
391.000000	30.996000  
391.500000	33.543000  
392.000000	35.950000  
392.500000	38.555000  
393.000000	40.283000  
393.500000	42.775000  
394.000000	44.406000  
394.500000	47.601000  
395.000000	48.657000  
395.500000	51.770000  
396.000000	52.763000  
396.500000	53.790000  
397.000000	55.521000  
397.500000	56.999000  
398.000000	57.980000  
398.500000	58.745000  
399.000000	58.829000  
399.500000	58.867000  
400.000000	60.866000  
400.500000	58.452000  
401.000000	59.239000  
401.500000	59.658000  
402.000000	58.109000  
402.500000	57.314000  
403.000000	55.825000  
403.500000	55.085000  
404.000000	54.202000  
404.500000	52.390000  
405.000000	49.977000  
405.500000	46.838000  
406.000000	46.257000  
406.500000	43.721000  
407.000000	40.287000  
407.500000	38.353000  
408.000000	36.465000  
408.500000	34.157000  
409.000000	31.231000  
409.500000	28.577000  
410.000000	26.617000  
410.500000	25.145000  
411.000000	22.708000  
411.500000	20.410000  
412.000000	18.820000  
412.500000	17.455000  
413.000000	15.723000  
413.500000	14.133000  
414.000000	12.988000  
414.500000	11.688000  
415.000000	10.445000  
415.500000	8.635999   
416.000000	7.588000   
416.500000	6.669000   
417.000000	6.289000   
417.500000	5.687000   
418.000000	4.712000   
418.500000	4.279000   
419.000000	3.842000   
419.500000	3.200000   
420.000000	3.036000   
420.500000	2.598000   
421.000000	2.505000   
421.500000	2.267000   
422.000000	2.122000   
422.500000	1.709000   
423.000000	1.963000   
423.500000	1.583000   
424.000000	1.447000   
424.500000	1.622000   
425.000000	1.585000   
425.500000	1.373000   
426.000000	1.290000   
426.500000	1.294000   
427.000000	1.411000   
427.500000	1.175000   
428.000000	1.214000   
428.500000	1.094000   
429.000000	1.154000   
429.500000	1.058000   
430.000000	1.137000   
430.500000	1.243000   
431.000000	1.221000   
431.500000	0.993000   
432.000000	0.782000   
432.500000	0.797000   
433.000000	0.898000   
433.500000	0.951000   
434.000000	0.995000   
434.500000	1.021000   
435.000000	0.861000   
435.500000	0.774000   
436.000000	0.897000   
436.500000	0.936000   
437.000000	1.012000   
437.500000	1.086000   
438.000000	1.091000   
438.500000	1.026000   
439.000000	1.003000   
439.500000	0.803000   
440.000000	0.996000   
440.500000	0.873000   
441.000000	0.833000   
441.500000	0.727000   
442.000000	0.852000   
442.500000	0.975000   
443.000000	0.893000   
443.500000	0.951000   
444.000000	0.852000   
444.500000	0.946000   
445.000000	0.834000   
445.500000	1.068000   
446.000000	0.937999   
446.500000	0.772000   
447.000000	0.894000   
447.500000	0.972000   
448.000000	0.878000   
448.500000	0.869000   
449.000000	0.858000   
449.500000	0.827000   
450.000000	0.678000   
450.500000	0.880000   
451.000000	0.825000   
451.500000	0.867000   
452.000000	0.987000   
452.500000	0.829000   
453.000000	0.746000   
453.500000	0.903000   
454.000000	0.771000   
454.500000	0.864000   
455.000000	0.937000   
455.500000	1.001000   
456.000000	1.107000   
456.500000	0.958000   
457.000000	0.717000   
457.500000	0.946000   
458.000000	1.064000   
458.500000	1.016000   
459.000000	0.995000   
459.500000	1.058000   
460.000000	0.894000   
460.500000	0.933000   
461.000000	0.801000   
461.500000	0.776000   
462.000000	0.811000   
462.500000	0.787000   
463.000000	0.701000   
463.500000	1.093000   
464.000000	0.976000   
464.500000	0.796000   
465.000000	0.788000   
465.500000	0.808000   
466.000000	0.863000   
466.500000	0.937000   
467.000000	0.795000   
467.500000	0.701000   
468.000000	0.706000   
468.500000	0.713000   
469.000000	0.750000   
469.500000	0.552000   
470.000000	0.653000   
470.500000	0.801000   
471.000000	0.745000   
471.500000	0.861000   
472.000000	0.715000   
472.500000	0.858000   
473.000000	0.730000   
473.500000	0.629000   
474.000000	0.692999   
474.500000	0.701000   
475.000000	0.632000   
475.500000	0.687000   
476.000000	0.575000   
476.500000	0.689999   
477.000000	0.821000   
477.500000	0.789000   
478.000000	0.832000   
478.500000	0.749000   
479.000000	0.690999   
479.500000	0.638000   
480.000000	0.645000   
480.500000	0.706000   
481.000000	0.842000   
481.500000	0.725000   
482.000000	0.672000   
482.500000	0.626000   
483.000000	0.565999   
483.500000	0.800000   
484.000000	0.705000   
484.500000	0.642000   
485.000000	0.653000   
485.500000	0.546000   
486.000000	0.619000   
486.500000	0.688999   
487.000000	0.843000   
487.500000	0.671000   
488.000000	0.649000   
488.500000	0.652000   
489.000000	0.658000   
489.500000	0.755000   
490.000000	0.753000   
490.500000	0.635000   
491.000000	0.557000   
491.500000	0.527000   
492.000000	0.613000   
492.500000	0.662000   
493.000000	0.733000   
493.500000	0.666000   
494.000000	0.655000   
494.500000	0.486000   
495.000000	0.607000   
495.500000	0.788000   
496.000000	0.626000   
496.500000	0.697000   
497.000000	0.786000   
497.500000	0.618000   
498.000000	0.666000   
498.500000	0.532000   
499.000000	0.670000   
499.500000	0.604000   
500.000000	0.599000   
500.500000	0.610000   
501.000000	0.463000   
501.500000	0.631000   
502.000000	0.635000   
502.500000	0.577000   
503.000000	0.482000   
503.500000	0.603000   
504.000000	0.537000   
504.500000	0.404000   
505.000000	0.596000   
505.500000	0.559000   
506.000000	0.533000   
506.500000	0.485000   
507.000000	0.551000   
507.500000	0.597000   
508.000000	0.629000   
508.500000	0.477000   
509.000000	0.429000   
509.500000	0.485000   
510.000000	0.399000   
510.500000	0.431000   
511.000000	0.486000   
511.500000	0.487000   
512.000000	0.405000   
512.500000	0.551000   
513.000000	0.437000   
513.500000	0.496000   
514.000000	0.477000   
514.500000	0.610000   
515.000000	0.533000   
515.500000	0.487000   
516.000000	0.392000   
516.500000	0.562000   
517.000000	0.547000   
517.500000	0.439000   
518.000000	0.481000   
518.500000	0.506000   
519.000000	0.559000   
519.500000	0.519000   
520.000000	0.487000   
520.500000	0.550000   
521.000000	0.525000   
521.500000	0.491000   
522.000000	0.409000   
522.500000	0.474000   
523.000000	0.536000   
523.500000	0.556000   
524.000000	0.418000   
524.500000	0.437000   
525.000000	0.550000   
525.500000	0.463000   
526.000000	0.370000   
526.500000	0.509000   
527.000000	0.345000   
527.500000	0.472000   
528.000000	0.357000   
528.500000	0.335000   
529.000000	0.479000   
529.500000	0.451000   
530.000000	0.372000   
530.500000	0.414000   
531.000000	0.400000   
531.500000	0.322000   
532.000000	0.341000   
532.500000	0.359000   
533.000000	0.425000   
533.500000	0.398000   
534.000000	0.385000   
534.500000	0.409000   
535.000000	0.417000   
535.500000	0.486000   
536.000000	0.513000   
536.500000	0.411000   
537.000000	0.384000   
537.500000	0.345000   
538.000000	0.503000   
538.500000	0.459000   
539.000000	0.481000   
539.500000	0.412000   
540.000000	0.431000   
540.500000	0.558000   
541.000000	0.355000   
541.500000	0.442000   
542.000000	0.418000   
542.500000	0.391000   
543.000000	0.397000   
543.500000	0.437000   
544.000000	0.348000   
544.500000	0.445000   
545.000000	0.365000   
545.500000	0.291000   
546.000000	0.361000   
546.500000	0.389000   
547.000000	0.400000   
547.500000	0.369000   
548.000000	0.290000   
548.500000	0.294000   

