PE FL                   SPECTRUM    ASCII       PEDS        1.60        
  -1
016402~1.SP
19/01/24
10:49:44.00
19/01/24
10:49:44.00


548.500000
1









LS45
480.00
10.00
10.00
SCAN
1
16
100
100
0
600
0
1
0
1
7
ON
435 365 
0 0 0
#HDR
-1
-1
#GR
NM
INT 
0.00002384185791015625
0.0
230.000000
0.500000
638
8
159.742000
0.018000
#DATA
230.000000	0.404000   
230.500000	0.413000   
231.000000	0.469000   
231.500000	0.488000   
232.000000	0.535000   
232.500000	0.609000   
233.000000	0.536000   
233.500000	0.659000   
234.000000	0.537000   
234.500000	0.671000   
235.000000	0.717000   
235.500000	0.762000   
236.000000	0.878000   
236.500000	0.937999   
237.000000	0.801000   
237.500000	0.726000   
238.000000	0.823000   
238.500000	0.840000   
239.000000	0.864000   
239.500000	0.810000   
240.000000	0.738000   
240.500000	0.719000   
241.000000	0.665000   
241.500000	0.750000   
242.000000	0.722000   
242.500000	0.511000   
243.000000	0.563999   
243.500000	0.560000   
244.000000	0.493000   
244.500000	0.512000   
245.000000	0.416000   
245.500000	0.452000   
246.000000	0.333000   
246.500000	0.327000   
247.000000	0.245000   
247.500000	0.342000   
248.000000	0.340000   
248.500000	0.383000   
249.000000	0.341000   
249.500000	0.327000   
250.000000	0.269000   
250.500000	0.354000   
251.000000	0.329000   
251.500000	0.499000   
252.000000	0.471000   
252.500000	0.425000   
253.000000	0.546000   
253.500000	0.460000   
254.000000	0.582000   
254.500000	0.558000   
255.000000	0.608000   
255.500000	0.648000   
256.000000	0.731000   
256.500000	0.663000   
257.000000	0.613000   
257.500000	0.705000   
258.000000	0.729000   
258.500000	0.701000   
259.000000	0.656000   
259.500000	0.729000   
260.000000	0.722000   
260.500000	0.669000   
261.000000	0.680000   
261.500000	0.681000   
262.000000	0.678000   
262.500000	0.621000   
263.000000	0.688999   
263.500000	0.679000   
264.000000	0.515000   
264.500000	0.474000   
265.000000	0.367000   
265.500000	0.486000   
266.000000	0.437000   
266.500000	0.361000   
267.000000	0.339000   
267.500000	0.349000   
268.000000	0.205000   
268.500000	0.228000   
269.000000	0.274000   
269.500000	0.240000   
270.000000	0.221000   
270.500000	0.166000   
271.000000	0.160000   
271.500000	0.132000   
272.000000	0.107000   
272.500000	0.116000   
273.000000	0.083000   
273.500000	0.065000   
274.000000	0.055000   
274.500000	0.050000   
275.000000	0.073000   
275.500000	0.059000   
276.000000	0.046000   
276.500000	0.024000   
277.000000	0.031000   
277.500000	0.058000   
278.000000	0.055000   
278.500000	0.051000   
279.000000	0.058000   
279.500000	0.030000   
280.000000	0.040000   
280.500000	0.042000   
281.000000	0.085000   
281.500000	0.053000   
282.000000	0.050000   
282.500000	0.052000   
283.000000	0.069000   
283.500000	0.051000   
284.000000	0.052000   
284.500000	0.085000   
285.000000	0.073000   
285.500000	0.064000   
286.000000	0.036000   
286.500000	0.052000   
287.000000	0.033000   
287.500000	0.052000   
288.000000	0.080000   
288.500000	0.067000   
289.000000	0.111000   
289.500000	0.066000   
290.000000	0.077000   
290.500000	0.026000   
291.000000	0.023000   
291.500000	0.044000   
292.000000	0.018000   
292.500000	0.079000   
293.000000	0.040000   
293.500000	0.036000   
294.000000	0.060000   
294.500000	0.059000   
295.000000	0.059000   
295.500000	0.055000   
296.000000	0.044000   
296.500000	0.060000   
297.000000	0.050000   
297.500000	0.096000   
298.000000	0.079000   
298.500000	0.096000   
299.000000	0.069000   
299.500000	0.054000   
300.000000	0.096000   
300.500000	0.104000   
301.000000	0.102000   
301.500000	0.065000   
302.000000	0.063000   
302.500000	0.058000   
303.000000	0.096000   
303.500000	0.115000   
304.000000	0.101000   
304.500000	0.074000   
305.000000	0.078000   
305.500000	0.082000   
306.000000	0.101000   
306.500000	0.153000   
307.000000	0.075000   
307.500000	0.029000   
308.000000	0.039000   
308.500000	0.080000   
309.000000	0.089000   
309.500000	0.113000   
310.000000	0.092000   
310.500000	0.086999   
311.000000	0.077000   
311.500000	0.066000   
312.000000	0.087999   
312.500000	0.085999   
313.000000	0.095000   
313.500000	0.092000   
314.000000	0.086999   
314.500000	0.087999   
315.000000	0.048000   
315.500000	0.070999   
316.000000	0.084000   
316.500000	0.085000   
317.000000	0.110000   
317.500000	0.066000   
318.000000	0.090000   
318.500000	0.096000   
319.000000	0.111000   
319.500000	0.079000   
320.000000	0.096000   
320.500000	0.110000   
321.000000	0.095000   
321.500000	0.074000   
322.000000	0.071999   
322.500000	0.044000   
323.000000	0.083000   
323.500000	0.070000   
324.000000	0.118000   
324.500000	0.131000   
325.000000	0.120000   
325.500000	0.103000   
326.000000	0.070999   
326.500000	0.068000   
327.000000	0.086999   
327.500000	0.113000   
328.000000	0.084000   
328.500000	0.123000   
329.000000	0.150000   
329.500000	0.096000   
330.000000	0.111000   
330.500000	0.075000   
331.000000	0.087999   
331.500000	0.094000   
332.000000	0.118000   
332.500000	0.136000   
333.000000	0.135000   
333.500000	0.148000   
334.000000	0.172000   
334.500000	0.087999   
335.000000	0.127000   
335.500000	0.131000   
336.000000	0.134000   
336.500000	0.105000   
337.000000	0.179000   
337.500000	0.121000   
338.000000	0.134000   
338.500000	0.139000   
339.000000	0.145000   
339.500000	0.108000   
340.000000	0.116000   
340.500000	0.135000   
341.000000	0.153000   
341.500000	0.115000   
342.000000	0.095000   
342.500000	0.120000   
343.000000	0.104000   
343.500000	0.093000   
344.000000	0.096000   
344.500000	0.144000   
345.000000	0.115000   
345.500000	0.104000   
346.000000	0.118000   
346.500000	0.135000   
347.000000	0.129000   
347.500000	0.135000   
348.000000	0.102000   
348.500000	0.142000   
349.000000	0.109000   
349.500000	0.089000   
350.000000	0.127000   
350.500000	0.097000   
351.000000	0.115000   
351.500000	0.112000   
352.000000	0.127000   
352.500000	0.100000   
353.000000	0.110000   
353.500000	0.155000   
354.000000	0.121000   
354.500000	0.115000   
355.000000	0.095000   
355.500000	0.127000   
356.000000	0.144000   
356.500000	0.170000   
357.000000	0.113000   
357.500000	0.101000   
358.000000	0.122000   
358.500000	0.118000   
359.000000	0.119000   
359.500000	0.073000   
360.000000	0.074000   
360.500000	0.125000   
361.000000	0.115000   
361.500000	0.079000   
362.000000	0.106000   
362.500000	0.171000   
363.000000	0.134000   
363.500000	0.153000   
364.000000	0.148000   
364.500000	0.134000   
365.000000	0.146000   
365.500000	0.119000   
366.000000	0.113000   
366.500000	0.083000   
367.000000	0.119000   
367.500000	0.141000   
368.000000	0.113000   
368.500000	0.108000   
369.000000	0.074000   
369.500000	0.143000   
370.000000	0.185000   
370.500000	0.138000   
371.000000	0.109000   
371.500000	0.141000   
372.000000	0.125000   
372.500000	0.179000   
373.000000	0.175000   
373.500000	0.125000   
374.000000	0.141000   
374.500000	0.110000   
375.000000	0.132000   
375.500000	0.140000   
376.000000	0.137000   
376.500000	0.099000   
377.000000	0.129000   
377.500000	0.188000   
378.000000	0.164000   
378.500000	0.161000   
379.000000	0.163000   
379.500000	0.154000   
380.000000	0.145000   
380.500000	0.123000   
381.000000	0.115000   
381.500000	0.114000   
382.000000	0.131000   
382.500000	0.102000   
383.000000	0.152000   
383.500000	0.143000   
384.000000	0.126000   
384.500000	0.133000   
385.000000	0.156000   
385.500000	0.176000   
386.000000	0.180000   
386.500000	0.122000   
387.000000	0.146000   
387.500000	0.168000   
388.000000	0.127000   
388.500000	0.136000   
389.000000	0.202000   
389.500000	0.186000   
390.000000	0.133000   
390.500000	0.221000   
391.000000	0.163000   
391.500000	0.145000   
392.000000	0.096000   
392.500000	0.121000   
393.000000	0.119000   
393.500000	0.115000   
394.000000	0.093000   
394.500000	0.107000   
395.000000	0.117000   
395.500000	0.143000   
396.000000	0.164000   
396.500000	0.152000   
397.000000	0.126000   
397.500000	0.165000   
398.000000	0.154000   
398.500000	0.124000   
399.000000	0.132000   
399.500000	0.115000   
400.000000	0.109000   
400.500000	0.151000   
401.000000	0.189000   
401.500000	0.140000   
402.000000	0.282000   
402.500000	0.236000   
403.000000	0.194000   
403.500000	0.128000   
404.000000	0.148000   
404.500000	0.149000   
405.000000	0.146000   
405.500000	0.121000   
406.000000	0.122000   
406.500000	0.150000   
407.000000	0.206000   
407.500000	0.167000   
408.000000	0.127000   
408.500000	0.200000   
409.000000	0.152000   
409.500000	0.160000   
410.000000	0.170000   
410.500000	0.199000   
411.000000	0.228000   
411.500000	0.207000   
412.000000	0.243000   
412.500000	0.220000   
413.000000	0.242000   
413.500000	0.231000   
414.000000	0.202000   
414.500000	0.189000   
415.000000	0.210000   
415.500000	0.206000   
416.000000	0.263000   
416.500000	0.215000   
417.000000	0.283000   
417.500000	0.281000   
418.000000	0.209000   
418.500000	0.243000   
419.000000	0.284000   
419.500000	0.222000   
420.000000	0.225000   
420.500000	0.184000   
421.000000	0.166000   
421.500000	0.202000   
422.000000	0.285000   
422.500000	0.164000   
423.000000	0.259000   
423.500000	0.241000   
424.000000	0.324000   
424.500000	0.335000   
425.000000	0.380000   
425.500000	0.352000   
426.000000	0.298000   
426.500000	0.338000   
427.000000	0.221000   
427.500000	0.259000   
428.000000	0.248000   
428.500000	0.278000   
429.000000	0.242000   
429.500000	0.315000   
430.000000	0.287000   
430.500000	0.256000   
431.000000	0.327000   
431.500000	0.351000   
432.000000	0.368000   
432.500000	0.262000   
433.000000	0.321000   
433.500000	0.297000   
434.000000	0.315000   
434.500000	0.319000   
435.000000	0.357000   
435.500000	0.340000   
436.000000	0.335000   
436.500000	0.296000   
437.000000	0.481000   
437.500000	0.340000   
438.000000	0.232000   
438.500000	0.300000   
439.000000	0.347000   
439.500000	0.324000   
440.000000	0.333000   
440.500000	0.367000   
441.000000	0.447000   
441.500000	0.510000   
442.000000	0.456000   
442.500000	0.363000   
443.000000	0.397000   
443.500000	0.386000   
444.000000	0.385000   
444.500000	0.436000   
445.000000	0.451000   
445.500000	0.442000   
446.000000	0.386000   
446.500000	0.454000   
447.000000	0.373000   
447.500000	0.454000   
448.000000	0.464000   
448.500000	0.499000   
449.000000	0.598000   
449.500000	0.439000   
450.000000	0.492000   
450.500000	0.687000   
451.000000	0.630000   
451.500000	0.626000   
452.000000	0.513000   
452.500000	0.535000   
453.000000	0.582000   
453.500000	0.608000   
454.000000	0.553000   
454.500000	0.601000   
455.000000	0.811000   
455.500000	0.936000   
456.000000	0.942999   
456.500000	0.972000   
457.000000	1.209000   
457.500000	1.444000   
458.000000	1.739000   
458.500000	2.368000   
459.000000	2.716000   
459.500000	3.533000   
460.000000	4.823000   
460.500000	5.863000   
461.000000	7.571000   
461.500000	9.195000   
462.000000	12.109000  
462.500000	14.426000  
463.000000	17.856000  
463.500000	21.422000  
464.000000	25.917000  
464.500000	30.040000  
465.000000	35.975000  
465.500000	40.338000  
466.000000	46.918000  
466.500000	52.222000  
467.000000	59.943000  
467.500000	65.158000  
468.000000	73.587000  
468.500000	79.521000  
469.000000	87.419000  
469.500000	92.433000  
470.000000	101.797000 
470.500000	110.109000 
471.000000	117.861000 
471.500000	122.598000 
472.000000	130.922000 
472.500000	136.874000 
473.000000	143.370000 
473.500000	146.138000 
474.000000	151.990000 
474.500000	154.032000 
475.000000	156.348000 
475.500000	158.579000 
476.000000	159.742000 
476.500000	158.819000 
477.000000	157.800000 
477.500000	153.300000 
478.000000	152.086000 
478.500000	148.817000 
479.000000	144.031000 
479.500000	139.315000 
480.000000	132.391000 
480.500000	126.488000 
481.000000	119.452000 
481.500000	114.695000 
482.000000	107.548000 
482.500000	100.284000 
483.000000	94.101000  
483.500000	85.438000  
484.000000	80.041000  
484.500000	71.906000  
485.000000	66.039000  
485.500000	57.548000  
486.000000	52.632000  
486.500000	45.964000  
487.000000	39.808000  
487.500000	34.832000  
488.000000	31.906000  
488.500000	27.530000  
489.000000	23.560000  
489.500000	19.071000  
490.000000	16.636000  
490.500000	13.492000  
491.000000	11.705000  
491.500000	9.096000   
492.000000	7.533000   
492.500000	6.034000   
493.000000	4.374000   
493.500000	3.392000   
494.000000	2.885000   
494.500000	2.079000   
495.000000	1.879000   
495.500000	1.592000   
496.000000	1.322000   
496.500000	1.224000   
497.000000	1.220000   
497.500000	1.123000   
498.000000	1.016000   
498.500000	1.059000   
499.000000	0.921000   
499.500000	0.962000   
500.000000	0.899000   
500.500000	0.915000   
501.000000	0.993000   
501.500000	0.928000   
502.000000	0.881000   
502.500000	0.893000   
503.000000	1.092000   
503.500000	0.994000   
504.000000	1.070000   
504.500000	1.088000   
505.000000	1.050000   
505.500000	1.125000   
506.000000	1.183000   
506.500000	1.378000   
507.000000	1.553000   
507.500000	1.624000   
508.000000	1.734000   
508.500000	1.831000   
509.000000	2.050000   
509.500000	1.937000   
510.000000	2.091000   
510.500000	2.391000   
511.000000	2.274000   
511.500000	2.521000   
512.000000	2.802000   
512.500000	2.754000   
513.000000	2.814000   
513.500000	2.926000   
514.000000	3.272000   
514.500000	3.316000   
515.000000	3.256000   
515.500000	3.550000   
516.000000	3.524000   
516.500000	3.186000   
517.000000	3.489000   
517.500000	3.822000   
518.000000	3.456000   
518.500000	3.469000   
519.000000	3.590000   
519.500000	3.581000   
520.000000	3.624000   
520.500000	3.334000   
521.000000	3.511000   
521.500000	3.540000   
522.000000	3.458000   
522.500000	3.392000   
523.000000	3.412000   
523.500000	2.996000   
524.000000	2.904000   
524.500000	3.241000   
525.000000	2.790000   
525.500000	2.781000   
526.000000	2.601000   
526.500000	2.373000   
527.000000	2.345000   
527.500000	2.039000   
528.000000	1.884000   
528.500000	1.800000   
529.000000	1.739000   
529.500000	1.504000   
530.000000	1.293000   
530.500000	1.338000   
531.000000	1.257000   
531.500000	1.168000   
532.000000	0.957000   
532.500000	0.886000   
533.000000	0.808000   
533.500000	0.863000   
534.000000	0.616000   
534.500000	0.554000   
535.000000	0.622000   
535.500000	0.493000   
536.000000	0.473000   
536.500000	0.472000   
537.000000	0.401000   
537.500000	0.424000   
538.000000	0.353000   
538.500000	0.364000   
539.000000	0.245000   
539.500000	0.251000   
540.000000	0.312000   
540.500000	0.304000   
541.000000	0.236000   
541.500000	0.235000   
542.000000	0.269000   
542.500000	0.171000   
543.000000	0.185000   
543.500000	0.202000   
544.000000	0.237000   
544.500000	0.217000   
545.000000	0.219000   
545.500000	0.234000   
546.000000	0.198000   
546.500000	0.208000   
547.000000	0.273000   
547.500000	0.265000   
548.000000	0.381000   
548.500000	0.296000   

