PE FL                   SPECTRUM    ASCII       PEDS        1.60        
  -1
017CF5~1.SP
19/01/24
10:38:26.00
19/01/24
10:38:26.00


548.500000
1









LS45
405.00
10.00
10.00
SCAN
1
16
100
100
0
600
0
1
0
1
7
ON
435 365 
0 0 0
#HDR
-1
-1
#GR
NM
INT 
0.00002384185791015625
0.0
230.000000
0.500000
638
8
349.277000
0.028000
#DATA
230.000000	0.036000   
230.500000	0.050000   
231.000000	0.093000   
231.500000	0.073000   
232.000000	0.105000   
232.500000	0.048000   
233.000000	0.045000   
233.500000	0.061000   
234.000000	0.078000   
234.500000	0.048000   
235.000000	0.090000   
235.500000	0.082000   
236.000000	0.063000   
236.500000	0.112000   
237.000000	0.105000   
237.500000	0.068000   
238.000000	0.066000   
238.500000	0.033000   
239.000000	0.028000   
239.500000	0.062000   
240.000000	0.036000   
240.500000	0.044000   
241.000000	0.089000   
241.500000	0.032000   
242.000000	0.043000   
242.500000	0.075000   
243.000000	0.097000   
243.500000	0.059000   
244.000000	0.076000   
244.500000	0.069000   
245.000000	0.080000   
245.500000	0.107000   
246.000000	0.094000   
246.500000	0.098000   
247.000000	0.103000   
247.500000	0.080000   
248.000000	0.069000   
248.500000	0.055000   
249.000000	0.061000   
249.500000	0.065000   
250.000000	0.074000   
250.500000	0.102000   
251.000000	0.068000   
251.500000	0.053000   
252.000000	0.039000   
252.500000	0.052000   
253.000000	0.103000   
253.500000	0.106000   
254.000000	0.077000   
254.500000	0.093000   
255.000000	0.094000   
255.500000	0.071999   
256.000000	0.122000   
256.500000	0.097000   
257.000000	0.131000   
257.500000	0.093000   
258.000000	0.056000   
258.500000	0.063000   
259.000000	0.095000   
259.500000	0.080000   
260.000000	0.108000   
260.500000	0.091000   
261.000000	0.051000   
261.500000	0.101000   
262.000000	0.110000   
262.500000	0.068000   
263.000000	0.107000   
263.500000	0.112000   
264.000000	0.091000   
264.500000	0.048000   
265.000000	0.079000   
265.500000	0.076000   
266.000000	0.091000   
266.500000	0.125000   
267.000000	0.091000   
267.500000	0.083000   
268.000000	0.070000   
268.500000	0.075000   
269.000000	0.155000   
269.500000	0.092000   
270.000000	0.085000   
270.500000	0.060000   
271.000000	0.110000   
271.500000	0.087999   
272.000000	0.117000   
272.500000	0.070000   
273.000000	0.119000   
273.500000	0.138000   
274.000000	0.087999   
274.500000	0.112000   
275.000000	0.159000   
275.500000	0.111000   
276.000000	0.125000   
276.500000	0.104000   
277.000000	0.108000   
277.500000	0.092000   
278.000000	0.104000   
278.500000	0.177000   
279.000000	0.098000   
279.500000	0.073000   
280.000000	0.059000   
280.500000	0.114000   
281.000000	0.154000   
281.500000	0.159000   
282.000000	0.171000   
282.500000	0.134000   
283.000000	0.154000   
283.500000	0.107000   
284.000000	0.146000   
284.500000	0.113000   
285.000000	0.134000   
285.500000	0.163000   
286.000000	0.125000   
286.500000	0.132000   
287.000000	0.145000   
287.500000	0.181000   
288.000000	0.213000   
288.500000	0.171000   
289.000000	0.133000   
289.500000	0.139000   
290.000000	0.141000   
290.500000	0.132000   
291.000000	0.171000   
291.500000	0.145000   
292.000000	0.161000   
292.500000	0.134000   
293.000000	0.133000   
293.500000	0.132000   
294.000000	0.186000   
294.500000	0.125000   
295.000000	0.118000   
295.500000	0.188000   
296.000000	0.298000   
296.500000	0.181000   
297.000000	0.134000   
297.500000	0.140000   
298.000000	0.150000   
298.500000	0.148000   
299.000000	0.130000   
299.500000	0.222000   
300.000000	0.175000   
300.500000	0.129000   
301.000000	0.175000   
301.500000	0.167000   
302.000000	0.201000   
302.500000	0.130000   
303.000000	0.174000   
303.500000	0.127000   
304.000000	0.162000   
304.500000	0.159000   
305.000000	0.176000   
305.500000	0.136000   
306.000000	0.162000   
306.500000	0.233000   
307.000000	0.255000   
307.500000	0.206000   
308.000000	0.212000   
308.500000	0.238000   
309.000000	0.288000   
309.500000	0.150000   
310.000000	0.145000   
310.500000	0.158000   
311.000000	0.203000   
311.500000	0.195000   
312.000000	0.174000   
312.500000	0.326000   
313.000000	0.233000   
313.500000	0.186000   
314.000000	0.232000   
314.500000	0.169000   
315.000000	0.258000   
315.500000	0.364000   
316.000000	0.330000   
316.500000	0.176000   
317.000000	0.174000   
317.500000	0.219000   
318.000000	0.192000   
318.500000	0.183000   
319.000000	0.209000   
319.500000	0.276000   
320.000000	0.252000   
320.500000	0.243000   
321.000000	0.291000   
321.500000	0.226000   
322.000000	0.233000   
322.500000	0.297000   
323.000000	0.290000   
323.500000	0.323000   
324.000000	0.230000   
324.500000	0.206000   
325.000000	0.235000   
325.500000	0.264000   
326.000000	0.195000   
326.500000	0.267000   
327.000000	0.320000   
327.500000	0.326000   
328.000000	0.216000   
328.500000	0.236000   
329.000000	0.229000   
329.500000	0.237000   
330.000000	0.316000   
330.500000	0.305000   
331.000000	0.249000   
331.500000	0.341000   
332.000000	0.348000   
332.500000	0.298000   
333.000000	0.230000   
333.500000	0.249000   
334.000000	0.302000   
334.500000	0.379000   
335.000000	0.355000   
335.500000	0.314000   
336.000000	0.334000   
336.500000	0.284000   
337.000000	0.263000   
337.500000	0.321000   
338.000000	0.359000   
338.500000	0.246000   
339.000000	0.319000   
339.500000	0.266000   
340.000000	0.295000   
340.500000	0.306000   
341.000000	0.354000   
341.500000	0.292000   
342.000000	0.317000   
342.500000	0.366000   
343.000000	0.334000   
343.500000	0.310000   
344.000000	0.397000   
344.500000	0.316000   
345.000000	0.300000   
345.500000	0.349000   
346.000000	0.392000   
346.500000	0.424000   
347.000000	0.393000   
347.500000	0.370000   
348.000000	0.401000   
348.500000	0.368000   
349.000000	0.382000   
349.500000	0.354000   
350.000000	0.471000   
350.500000	0.510000   
351.000000	0.413000   
351.500000	0.441000   
352.000000	0.467000   
352.500000	0.462000   
353.000000	0.508000   
353.500000	0.524000   
354.000000	0.508000   
354.500000	0.468000   
355.000000	0.405000   
355.500000	0.378000   
356.000000	0.550000   
356.500000	0.525000   
357.000000	0.499000   
357.500000	0.516000   
358.000000	0.538000   
358.500000	0.637000   
359.000000	0.507000   
359.500000	0.610000   
360.000000	0.524000   
360.500000	0.641000   
361.000000	0.678000   
361.500000	0.741000   
362.000000	0.625000   
362.500000	0.792000   
363.000000	0.677000   
363.500000	0.611000   
364.000000	0.634000   
364.500000	0.725000   
365.000000	0.729000   
365.500000	0.680000   
366.000000	0.853000   
366.500000	0.799000   
367.000000	0.547000   
367.500000	0.756000   
368.000000	0.804000   
368.500000	0.770000   
369.000000	0.812999   
369.500000	0.812000   
370.000000	0.916000   
370.500000	0.738000   
371.000000	0.804000   
371.500000	0.850000   
372.000000	0.897000   
372.500000	1.023000   
373.000000	0.919000   
373.500000	0.911000   
374.000000	1.002000   
374.500000	0.998000   
375.000000	1.035000   
375.500000	1.106000   
376.000000	1.051000   
376.500000	1.011000   
377.000000	1.125000   
377.500000	1.037000   
378.000000	1.160000   
378.500000	1.234000   
379.000000	1.230000   
379.500000	1.253000   
380.000000	1.370000   
380.500000	1.567000   
381.000000	1.497000   
381.500000	1.732000   
382.000000	2.165000   
382.500000	2.590000   
383.000000	3.275000   
383.500000	4.170000   
384.000000	5.283000   
384.500000	6.343000   
385.000000	8.603000   
385.500000	10.808000  
386.000000	13.695000  
386.500000	16.328000  
387.000000	21.005000  
387.500000	24.591000  
388.000000	32.029000  
388.500000	36.831000  
389.000000	44.010000  
389.500000	52.807000  
390.000000	60.607000  
390.500000	69.764000  
391.000000	80.997000  
391.500000	91.806000  
392.000000	105.734000 
392.500000	118.675000 
393.000000	133.668000 
393.500000	150.488000 
394.000000	166.171000 
394.500000	183.740000 
395.000000	198.628000 
395.500000	218.649000 
396.000000	233.094000 
396.500000	248.987000 
397.000000	265.070000 
397.500000	279.169000 
398.000000	290.968000 
398.500000	306.053000 
399.000000	315.558000 
399.500000	325.874000 
400.000000	335.027000 
400.500000	341.196000 
401.000000	345.506000 
401.500000	349.277000 
402.000000	348.937000 
402.500000	346.666000 
403.000000	342.973000 
403.500000	341.076000 
404.000000	332.596000 
404.500000	323.796000 
405.000000	310.677000 
405.500000	297.130000 
406.000000	285.727000 
406.500000	273.934000 
407.000000	256.290000 
407.500000	241.939000 
408.000000	224.357000 
408.500000	205.708000 
409.000000	186.687000 
409.500000	174.604000 
410.000000	157.284000 
410.500000	139.819000 
411.000000	125.757000 
411.500000	112.300000 
412.000000	100.205000 
412.500000	85.936000  
413.000000	75.435000  
413.500000	65.459000  
414.000000	55.141000  
414.500000	45.633000  
415.000000	37.778000  
415.500000	31.562000  
416.000000	25.639000  
416.500000	21.375000  
417.000000	17.538000  
417.500000	13.693000  
418.000000	11.214000  
418.500000	8.561000   
419.000000	7.074000   
419.500000	5.669000   
420.000000	4.892000   
420.500000	3.855000   
421.000000	3.513000   
421.500000	3.369000   
422.000000	3.352000   
422.500000	3.091000   
423.000000	2.778000   
423.500000	2.655000   
424.000000	2.827000   
424.500000	2.729000   
425.000000	2.701000   
425.500000	2.529000   
426.000000	2.450000   
426.500000	2.791000   
427.000000	2.588000   
427.500000	2.460000   
428.000000	2.534000   
428.500000	2.479000   
429.000000	2.677000   
429.500000	2.417000   
430.000000	2.563000   
430.500000	2.793000   
431.000000	2.642000   
431.500000	2.611000   
432.000000	2.305000   
432.500000	2.582000   
433.000000	2.422000   
433.500000	2.335000   
434.000000	2.277000   
434.500000	2.205000   
435.000000	2.380000   
435.500000	2.315000   
436.000000	2.205000   
436.500000	1.912000   
437.000000	1.945000   
437.500000	2.120000   
438.000000	1.951000   
438.500000	1.946000   
439.000000	1.781000   
439.500000	1.875000   
440.000000	1.700000   
440.500000	1.725000   
441.000000	1.676000   
441.500000	1.500000   
442.000000	1.599000   
442.500000	1.565000   
443.000000	1.806000   
443.500000	1.723000   
444.000000	1.722000   
444.500000	1.895000   
445.000000	1.963000   
445.500000	2.104000   
446.000000	2.346000   
446.500000	2.289000   
447.000000	2.663000   
447.500000	2.871000   
448.000000	3.145000   
448.500000	3.660000   
449.000000	3.840000   
449.500000	4.132000   
450.000000	4.177000   
450.500000	4.937000   
451.000000	5.364000   
451.500000	5.812000   
452.000000	6.439000   
452.500000	7.323000   
453.000000	7.557000   
453.500000	8.951000   
454.000000	8.792000   
454.500000	9.715000   
455.000000	10.312000  
455.500000	11.185000  
456.000000	11.922000  
456.500000	12.645000  
457.000000	13.026000  
457.500000	13.820000  
458.000000	14.146000  
458.500000	15.194000  
459.000000	15.847000  
459.500000	16.961000  
460.000000	17.134000  
460.500000	18.147000  
461.000000	18.493000  
461.500000	18.600000  
462.000000	18.914000  
462.500000	19.776000  
463.000000	19.981000  
463.500000	20.202000  
464.000000	19.726000  
464.500000	19.903000  
465.000000	20.251000  
465.500000	19.725000  
466.000000	19.709000  
466.500000	19.522000  
467.000000	19.438000  
467.500000	18.627000  
468.000000	18.759000  
468.500000	17.345000  
469.000000	17.351000  
469.500000	16.718000  
470.000000	16.510000  
470.500000	15.467000  
471.000000	14.510000  
471.500000	13.478000  
472.000000	13.189000  
472.500000	12.752000  
473.000000	11.700000  
473.500000	11.212000  
474.000000	10.949000  
474.500000	9.743000   
475.000000	9.452000   
475.500000	9.036000   
476.000000	7.952000   
476.500000	7.311000   
477.000000	6.879000   
477.500000	6.083000   
478.000000	5.477000   
478.500000	5.045000   
479.000000	4.584000   
479.500000	4.038000   
480.000000	3.940000   
480.500000	3.445000   
481.000000	3.061000   
481.500000	2.677000   
482.000000	2.632000   
482.500000	2.389000   
483.000000	2.239000   
483.500000	1.796000   
484.000000	1.701000   
484.500000	1.495000   
485.000000	1.511000   
485.500000	1.354000   
486.000000	1.133000   
486.500000	1.136000   
487.000000	1.006000   
487.500000	0.868000   
488.000000	0.957000   
488.500000	0.869000   
489.000000	0.822000   
489.500000	0.765000   
490.000000	0.665000   
490.500000	0.675000   
491.000000	0.689999   
491.500000	0.555000   
492.000000	0.454000   
492.500000	0.651000   
493.000000	0.562999   
493.500000	0.546000   
494.000000	0.481000   
494.500000	0.539000   
495.000000	0.441000   
495.500000	0.453000   
496.000000	0.437000   
496.500000	0.517000   
497.000000	0.503000   
497.500000	0.428000   
498.000000	0.340000   
498.500000	0.409000   
499.000000	0.360000   
499.500000	0.379000   
500.000000	0.363000   
500.500000	0.382000   
501.000000	0.441000   
501.500000	0.315000   
502.000000	0.298000   
502.500000	0.391000   
503.000000	0.392000   
503.500000	0.363000   
504.000000	0.337000   
504.500000	0.316000   
505.000000	0.282000   
505.500000	0.357000   
506.000000	0.361000   
506.500000	0.221000   
507.000000	0.340000   
507.500000	0.298000   
508.000000	0.279000   
508.500000	0.308000   
509.000000	0.241000   
509.500000	0.282000   
510.000000	0.358000   
510.500000	0.287000   
511.000000	0.359000   
511.500000	0.229000   
512.000000	0.269000   
512.500000	0.371000   
513.000000	0.302000   
513.500000	0.338000   
514.000000	0.290000   
514.500000	0.351000   
515.000000	0.378000   
515.500000	0.353000   
516.000000	0.328000   
516.500000	0.242000   
517.000000	0.289000   
517.500000	0.256000   
518.000000	0.224000   
518.500000	0.303000   
519.000000	0.343000   
519.500000	0.299000   
520.000000	0.227000   
520.500000	0.285000   
521.000000	0.278000   
521.500000	0.259000   
522.000000	0.296000   
522.500000	0.265000   
523.000000	0.245000   
523.500000	0.255000   
524.000000	0.298000   
524.500000	0.285000   
525.000000	0.214000   
525.500000	0.254000   
526.000000	0.249000   
526.500000	0.222000   
527.000000	0.193000   
527.500000	0.211000   
528.000000	0.231000   
528.500000	0.282000   
529.000000	0.183000   
529.500000	0.244000   
530.000000	0.224000   
530.500000	0.177000   
531.000000	0.169000   
531.500000	0.212000   
532.000000	0.164000   
532.500000	0.234000   
533.000000	0.255000   
533.500000	0.195000   
534.000000	0.185000   
534.500000	0.279000   
535.000000	0.234000   
535.500000	0.188000   
536.000000	0.207000   
536.500000	0.201000   
537.000000	0.195000   
537.500000	0.216000   
538.000000	0.200000   
538.500000	0.195000   
539.000000	0.242000   
539.500000	0.288000   
540.000000	0.187000   
540.500000	0.211000   
541.000000	0.171000   
541.500000	0.241000   
542.000000	0.186000   
542.500000	0.288000   
543.000000	0.208000   
543.500000	0.251000   
544.000000	0.255000   
544.500000	0.240000   
545.000000	0.127000   
545.500000	0.193000   
546.000000	0.191000   
546.500000	0.226000   
547.000000	0.188000   
547.500000	0.127000   
548.000000	0.198000   
548.500000	0.289000   

