PE FL                   SPECTRUM    ASCII       PEDS        1.60        
  -1
0124DI~4.SP
19/01/24
10:57:18.00
19/01/24
10:57:18.00


548.500000
1









LS45
530.00
10.00
10.00
SCAN
1
16
100
100
0
600
0
1
0
1
7
ON
435 365 
0 0 0
#HDR
-1
-1
#GR
NM
INT 
0.00002384185791015625
0.0
230.000000
0.500000
638
8
89.435000
0.000000
#DATA
230.000000	0.053000  
230.500000	0.016000  
231.000000	0.003000  
231.500000	0.013000  
232.000000	0.010000  
232.500000	0.008999  
233.000000	0.034000  
233.500000	0.005000  
234.000000	0.026000  
234.500000	0.034000  
235.000000	0.000000  
235.500000	0.000000  
236.000000	0.001000  
236.500000	0.004000  
237.000000	0.000000  
237.500000	0.003000  
238.000000	0.013000  
238.500000	0.015000  
239.000000	0.016000  
239.500000	0.000000  
240.000000	0.003000  
240.500000	0.013000  
241.000000	0.013000  
241.500000	0.015000  
242.000000	0.019000  
242.500000	0.017000  
243.000000	0.030000  
243.500000	0.021000  
244.000000	0.004000  
244.500000	0.003000  
245.000000	0.016000  
245.500000	0.028000  
246.000000	0.022000  
246.500000	0.011000  
247.000000	0.047000  
247.500000	0.042000  
248.000000	0.037000  
248.500000	0.040000  
249.000000	0.110000  
249.500000	0.173000  
250.000000	0.158000  
250.500000	0.232000  
251.000000	0.307000  
251.500000	0.438000  
252.000000	0.406000  
252.500000	0.395000  
253.000000	0.535000  
253.500000	0.702000  
254.000000	0.841000  
254.500000	0.859000  
255.000000	1.061000  
255.500000	1.128000  
256.000000	1.346000  
256.500000	1.434000  
257.000000	1.406000  
257.500000	1.556000  
258.000000	1.832000  
258.500000	1.788000  
259.000000	1.903000  
259.500000	2.003000  
260.000000	2.100000  
260.500000	2.226000  
261.000000	2.306000  
261.500000	2.136000  
262.000000	2.078000  
262.500000	2.194000  
263.000000	2.076000  
263.500000	2.267000  
264.000000	2.269000  
264.500000	1.896000  
265.000000	1.864000  
265.500000	1.751000  
266.000000	1.817000  
266.500000	1.674000  
267.000000	1.509000  
267.500000	1.479000  
268.000000	1.323000  
268.500000	1.123000  
269.000000	1.033000  
269.500000	0.999000  
270.000000	0.854000  
270.500000	0.764000  
271.000000	0.700000  
271.500000	0.591000  
272.000000	0.533000  
272.500000	0.359000  
273.000000	0.295000  
273.500000	0.296000  
274.000000	0.260000  
274.500000	0.260000  
275.000000	0.203000  
275.500000	0.176000  
276.000000	0.232000  
276.500000	0.244000  
277.000000	0.263000  
277.500000	0.328000  
278.000000	0.411000  
278.500000	0.352000  
279.000000	0.364000  
279.500000	0.414000  
280.000000	0.455000  
280.500000	0.476000  
281.000000	0.476000  
281.500000	0.639000  
282.000000	0.663000  
282.500000	0.698000  
283.000000	0.707000  
283.500000	0.860000  
284.000000	0.765000  
284.500000	0.793000  
285.000000	0.908000  
285.500000	0.911000  
286.000000	0.885000  
286.500000	0.901000  
287.000000	0.866000  
287.500000	0.804000  
288.000000	0.796000  
288.500000	0.987000  
289.000000	1.045000  
289.500000	0.888000  
290.000000	0.910000  
290.500000	0.822000  
291.000000	0.753000  
291.500000	0.798000  
292.000000	0.748000  
292.500000	0.824000  
293.000000	0.606000  
293.500000	0.594000  
294.000000	0.570000  
294.500000	0.547000  
295.000000	0.612000  
295.500000	0.516000  
296.000000	0.439000  
296.500000	0.444000  
297.000000	0.374000  
297.500000	0.429000  
298.000000	0.308000  
298.500000	0.318000  
299.000000	0.237000  
299.500000	0.230000  
300.000000	0.139000  
300.500000	0.145000  
301.000000	0.098000  
301.500000	0.117000  
302.000000	0.118000  
302.500000	0.093000  
303.000000	0.073000  
303.500000	0.040000  
304.000000	0.038000  
304.500000	0.103000  
305.000000	0.094000  
305.500000	0.058000  
306.000000	0.051000  
306.500000	0.049000  
307.000000	0.067000  
307.500000	0.052000  
308.000000	0.075000  
308.500000	0.103000  
309.000000	0.069000  
309.500000	0.048000  
310.000000	0.060000  
310.500000	0.080000  
311.000000	0.078000  
311.500000	0.063000  
312.000000	0.085999  
312.500000	0.059000  
313.000000	0.075000  
313.500000	0.068000  
314.000000	0.058000  
314.500000	0.058000  
315.000000	0.061000  
315.500000	0.036000  
316.000000	0.070000  
316.500000	0.076000  
317.000000	0.056000  
317.500000	0.063000  
318.000000	0.065000  
318.500000	0.061000  
319.000000	0.057000  
319.500000	0.046000  
320.000000	0.067000  
320.500000	0.071999  
321.000000	0.071999  
321.500000	0.069000  
322.000000	0.089000  
322.500000	0.065000  
323.000000	0.084000  
323.500000	0.105000  
324.000000	0.053000  
324.500000	0.068000  
325.000000	0.115000  
325.500000	0.085000  
326.000000	0.087999  
326.500000	0.050000  
327.000000	0.060000  
327.500000	0.076000  
328.000000	0.061000  
328.500000	0.070000  
329.000000	0.084000  
329.500000	0.097000  
330.000000	0.059000  
330.500000	0.074000  
331.000000	0.058000  
331.500000	0.062000  
332.000000	0.089000  
332.500000	0.086999  
333.000000	0.047000  
333.500000	0.061000  
334.000000	0.083000  
334.500000	0.076000  
335.000000	0.074000  
335.500000	0.085000  
336.000000	0.075000  
336.500000	0.058000  
337.000000	0.062000  
337.500000	0.049000  
338.000000	0.087999  
338.500000	0.095000  
339.000000	0.033000  
339.500000	0.054000  
340.000000	0.055000  
340.500000	0.053000  
341.000000	0.050000  
341.500000	0.066000  
342.000000	0.106000  
342.500000	0.078000  
343.000000	0.069000  
343.500000	0.090000  
344.000000	0.069000  
344.500000	0.080000  
345.000000	0.053000  
345.500000	0.053000  
346.000000	0.080000  
346.500000	0.070999  
347.000000	0.060000  
347.500000	0.079000  
348.000000	0.075000  
348.500000	0.077000  
349.000000	0.086999  
349.500000	0.085999  
350.000000	0.050000  
350.500000	0.077000  
351.000000	0.066000  
351.500000	0.078000  
352.000000	0.057000  
352.500000	0.069000  
353.000000	0.074000  
353.500000	0.065000  
354.000000	0.061000  
354.500000	0.051000  
355.000000	0.055000  
355.500000	0.052000  
356.000000	0.053000  
356.500000	0.081000  
357.000000	0.056000  
357.500000	0.052000  
358.000000	0.091000  
358.500000	0.060000  
359.000000	0.054000  
359.500000	0.046000  
360.000000	0.031000  
360.500000	0.046000  
361.000000	0.063000  
361.500000	0.052000  
362.000000	0.061000  
362.500000	0.055000  
363.000000	0.059000  
363.500000	0.067000  
364.000000	0.037000  
364.500000	0.047000  
365.000000	0.061000  
365.500000	0.071999  
366.000000	0.044000  
366.500000	0.056000  
367.000000	0.049000  
367.500000	0.077000  
368.000000	0.059000  
368.500000	0.079000  
369.000000	0.081000  
369.500000	0.070999  
370.000000	0.058000  
370.500000	0.077000  
371.000000	0.099000  
371.500000	0.047000  
372.000000	0.078000  
372.500000	0.086999  
373.000000	0.082000  
373.500000	0.059000  
374.000000	0.043000  
374.500000	0.071999  
375.000000	0.049000  
375.500000	0.040000  
376.000000	0.076000  
376.500000	0.031000  
377.000000	0.037000  
377.500000	0.079000  
378.000000	0.087999  
378.500000	0.063000  
379.000000	0.063000  
379.500000	0.079000  
380.000000	0.076000  
380.500000	0.056000  
381.000000	0.070999  
381.500000	0.075000  
382.000000	0.044000  
382.500000	0.085999  
383.000000	0.098000  
383.500000	0.042000  
384.000000	0.020000  
384.500000	0.039000  
385.000000	0.031000  
385.500000	0.076000  
386.000000	0.053000  
386.500000	0.053000  
387.000000	0.056000  
387.500000	0.057000  
388.000000	0.087999  
388.500000	0.073000  
389.000000	0.079000  
389.500000	0.085000  
390.000000	0.075000  
390.500000	0.065000  
391.000000	0.105000  
391.500000	0.096000  
392.000000	0.091000  
392.500000	0.083000  
393.000000	0.073000  
393.500000	0.103000  
394.000000	0.121000  
394.500000	0.075000  
395.000000	0.044000  
395.500000	0.060000  
396.000000	0.057000  
396.500000	0.049000  
397.000000	0.066000  
397.500000	0.068000  
398.000000	0.077000  
398.500000	0.093000  
399.000000	0.074000  
399.500000	0.063000  
400.000000	0.108000  
400.500000	0.064000  
401.000000	0.024000  
401.500000	0.070000  
402.000000	0.080000  
402.500000	0.070999  
403.000000	0.061000  
403.500000	0.075000  
404.000000	0.055000  
404.500000	0.064000  
405.000000	0.051000  
405.500000	0.050000  
406.000000	0.069000  
406.500000	0.057000  
407.000000	0.085999  
407.500000	0.079000  
408.000000	0.063000  
408.500000	0.042000  
409.000000	0.074000  
409.500000	0.079000  
410.000000	0.077000  
410.500000	0.085000  
411.000000	0.097000  
411.500000	0.070000  
412.000000	0.041000  
412.500000	0.050000  
413.000000	0.070000  
413.500000	0.078000  
414.000000	0.074000  
414.500000	0.105000  
415.000000	0.089000  
415.500000	0.043000  
416.000000	0.075000  
416.500000	0.057000  
417.000000	0.061000  
417.500000	0.065000  
418.000000	0.078000  
418.500000	0.076000  
419.000000	0.093000  
419.500000	0.080000  
420.000000	0.070000  
420.500000	0.081000  
421.000000	0.038000  
421.500000	0.075000  
422.000000	0.092000  
422.500000	0.086999  
423.000000	0.080000  
423.500000	0.083000  
424.000000	0.083000  
424.500000	0.066000  
425.000000	0.070999  
425.500000	0.095000  
426.000000	0.073000  
426.500000	0.104000  
427.000000	0.064000  
427.500000	0.060000  
428.000000	0.083000  
428.500000	0.074000  
429.000000	0.081000  
429.500000	0.099000  
430.000000	0.061000  
430.500000	0.042000  
431.000000	0.054000  
431.500000	0.068000  
432.000000	0.069000  
432.500000	0.062000  
433.000000	0.061000  
433.500000	0.058000  
434.000000	0.073000  
434.500000	0.076000  
435.000000	0.102000  
435.500000	0.070999  
436.000000	0.076000  
436.500000	0.115000  
437.000000	0.023000  
437.500000	0.043000  
438.000000	0.092000  
438.500000	0.064000  
439.000000	0.058000  
439.500000	0.073000  
440.000000	0.060000  
440.500000	0.077000  
441.000000	0.092000  
441.500000	0.094000  
442.000000	0.052000  
442.500000	0.062000  
443.000000	0.138000  
443.500000	0.114000  
444.000000	0.091000  
444.500000	0.129000  
445.000000	0.093000  
445.500000	0.104000  
446.000000	0.098000  
446.500000	0.085000  
447.000000	0.092000  
447.500000	0.119000  
448.000000	0.064000  
448.500000	0.093000  
449.000000	0.078000  
449.500000	0.069000  
450.000000	0.093000  
450.500000	0.075000  
451.000000	0.083000  
451.500000	0.147000  
452.000000	0.152000  
452.500000	0.118000  
453.000000	0.122000  
453.500000	0.116000  
454.000000	0.120000  
454.500000	0.149000  
455.000000	0.079000  
455.500000	0.091000  
456.000000	0.149000  
456.500000	0.127000  
457.000000	0.122000  
457.500000	0.155000  
458.000000	0.196000  
458.500000	0.122000  
459.000000	0.084000  
459.500000	0.111000  
460.000000	0.176000  
460.500000	0.138000  
461.000000	0.102000  
461.500000	0.165000  
462.000000	0.112000  
462.500000	0.131000  
463.000000	0.141000  
463.500000	0.146000  
464.000000	0.156000  
464.500000	0.146000  
465.000000	0.119000  
465.500000	0.125000  
466.000000	0.122000  
466.500000	0.089000  
467.000000	0.123000  
467.500000	0.162000  
468.000000	0.175000  
468.500000	0.151000  
469.000000	0.161000  
469.500000	0.129000  
470.000000	0.102000  
470.500000	0.123000  
471.000000	0.154000  
471.500000	0.154000  
472.000000	0.197000  
472.500000	0.180000  
473.000000	0.172000  
473.500000	0.130000  
474.000000	0.152000  
474.500000	0.137000  
475.000000	0.149000  
475.500000	0.144000  
476.000000	0.123000  
476.500000	0.177000  
477.000000	0.154000  
477.500000	0.148000  
478.000000	0.189000  
478.500000	0.149000  
479.000000	0.125000  
479.500000	0.154000  
480.000000	0.138000  
480.500000	0.105000  
481.000000	0.208000  
481.500000	0.206000  
482.000000	0.223000  
482.500000	0.190000  
483.000000	0.221000  
483.500000	0.241000  
484.000000	0.203000  
484.500000	0.191000  
485.000000	0.262000  
485.500000	0.236000  
486.000000	0.233000  
486.500000	0.230000  
487.000000	0.224000  
487.500000	0.289000  
488.000000	0.315000  
488.500000	0.317000  
489.000000	0.275000  
489.500000	0.235000  
490.000000	0.242000  
490.500000	0.215000  
491.000000	0.204000  
491.500000	0.316000  
492.000000	0.373000  
492.500000	0.169000  
493.000000	0.274000  
493.500000	0.253000  
494.000000	0.252000  
494.500000	0.286000  
495.000000	0.315000  
495.500000	0.296000  
496.000000	0.293000  
496.500000	0.315000  
497.000000	0.332000  
497.500000	0.269000  
498.000000	0.364000  
498.500000	0.290000  
499.000000	0.293000  
499.500000	0.220000  
500.000000	0.252000  
500.500000	0.327000  
501.000000	0.267000  
501.500000	0.257000  
502.000000	0.362000  
502.500000	0.401000  
503.000000	0.373000  
503.500000	0.265000  
504.000000	0.248000  
504.500000	0.259000  
505.000000	0.273000  
505.500000	0.333000  
506.000000	0.390000  
506.500000	0.388000  
507.000000	0.562999  
507.500000	0.680000  
508.000000	0.658000  
508.500000	0.980000  
509.000000	1.277000  
509.500000	1.404000  
510.000000	2.002000  
510.500000	2.489000  
511.000000	3.020000  
511.500000	3.866000  
512.000000	4.792000  
512.500000	6.231000  
513.000000	7.623000  
513.500000	9.061000  
514.000000	11.210000 
514.500000	12.945000 
515.000000	15.551000 
515.500000	17.402000 
516.000000	21.311000 
516.500000	24.165000 
517.000000	28.330000 
517.500000	31.793000 
518.000000	36.188000 
518.500000	39.769000 
519.000000	44.327000 
519.500000	48.319000 
520.000000	53.193000 
520.500000	57.635000 
521.000000	61.062000 
521.500000	64.276000 
522.000000	69.724999 
522.500000	72.962000 
523.000000	76.381000 
523.500000	80.974999 
524.000000	83.977999 
524.500000	85.331000 
525.000000	86.050000 
525.500000	88.575999 
526.000000	89.108000 
526.500000	89.435000 
527.000000	88.227999 
527.500000	87.286000 
528.000000	87.674000 
528.500000	84.302000 
529.000000	81.355000 
529.500000	79.132000 
530.000000	75.849999 
530.500000	71.711000 
531.000000	67.053000 
531.500000	63.781000 
532.000000	60.614000 
532.500000	56.115000 
533.000000	50.150000 
533.500000	46.074000 
534.000000	42.055000 
534.500000	38.099000 
535.000000	34.169000 
535.500000	30.041000 
536.000000	26.415000 
536.500000	22.059000 
537.000000	19.294000 
537.500000	15.917000 
538.000000	12.552000 
538.500000	10.176000 
539.000000	8.364000  
539.500000	6.931000  
540.000000	5.147000  
540.500000	4.391000  
541.000000	3.945000  
541.500000	2.873000  
542.000000	2.286000  
542.500000	1.800000  
543.000000	1.389000  
543.500000	1.158000  
544.000000	0.838000  
544.500000	0.805000  
545.000000	0.721000  
545.500000	0.546000  
546.000000	0.430000  
546.500000	0.483000  
547.000000	0.482000  
547.500000	0.354000  
548.000000	0.467000  
548.500000	0.388000  

