PE FL                   SPECTRUM    ASCII       PEDS        1.60        
  -1
0124DI~3.SP
19/01/24
10:58:02.00
19/01/24
10:58:02.00


548.500000
1









LS45
535.00
10.00
10.00
SCAN
1
16
100
100
0
600
0
1
0
1
7
ON
435 365 
0 0 0
#HDR
-1
-1
#GR
NM
INT 
0.00002384185791015625
0.0
230.000000
0.500000
638
8
84.566000
0.000000
#DATA
230.000000	0.000000  
230.500000	0.024000  
231.000000	0.013000  
231.500000	0.019000  
232.000000	0.033000  
232.500000	0.000000  
233.000000	0.000000  
233.500000	0.003000  
234.000000	0.013000  
234.500000	0.010000  
235.000000	0.008999  
235.500000	0.032000  
236.000000	0.000000  
236.500000	0.006000  
237.000000	0.024000  
237.500000	0.013000  
238.000000	0.010000  
238.500000	0.000000  
239.000000	0.003000  
239.500000	0.010000  
240.000000	0.004000  
240.500000	0.015000  
241.000000	0.005000  
241.500000	0.016000  
242.000000	0.005000  
242.500000	0.017000  
243.000000	0.006000  
243.500000	0.027000  
244.000000	0.021000  
244.500000	0.000000  
245.000000	0.000000  
245.500000	0.000000  
246.000000	0.000000  
246.500000	0.000000  
247.000000	0.003000  
247.500000	0.010000  
248.000000	0.008999  
248.500000	0.040000  
249.000000	0.025000  
249.500000	0.022000  
250.000000	0.051000  
250.500000	0.043000  
251.000000	0.053000  
251.500000	0.079000  
252.000000	0.128000  
252.500000	0.164000  
253.000000	0.166000  
253.500000	0.154000  
254.000000	0.281000  
254.500000	0.366000  
255.000000	0.409000  
255.500000	0.484000  
256.000000	0.733000  
256.500000	0.629000  
257.000000	0.863000  
257.500000	0.917000  
258.000000	1.090000  
258.500000	1.059000  
259.000000	1.206000  
259.500000	1.397000  
260.000000	1.538000  
260.500000	1.559000  
261.000000	1.878000  
261.500000	2.031000  
262.000000	1.981000  
262.500000	2.206000  
263.000000	1.991000  
263.500000	2.016000  
264.000000	2.023000  
264.500000	2.008000  
265.000000	2.269000  
265.500000	2.091000  
266.000000	2.313000  
266.500000	2.079000  
267.000000	2.154000  
267.500000	2.050000  
268.000000	2.098000  
268.500000	1.804000  
269.000000	1.690000  
269.500000	1.646000  
270.000000	1.448000  
270.500000	1.563000  
271.000000	1.386000  
271.500000	1.296000  
272.000000	1.058000  
272.500000	0.995000  
273.000000	0.877000  
273.500000	0.819000  
274.000000	0.655000  
274.500000	0.404000  
275.000000	0.500000  
275.500000	0.426000  
276.000000	0.393000  
276.500000	0.282000  
277.000000	0.194000  
277.500000	0.181000  
278.000000	0.180000  
278.500000	0.128000  
279.000000	0.133000  
279.500000	0.202000  
280.000000	0.163000  
280.500000	0.205000  
281.000000	0.208000  
281.500000	0.336000  
282.000000	0.291000  
282.500000	0.319000  
283.000000	0.376000  
283.500000	0.394000  
284.000000	0.504000  
284.500000	0.460000  
285.000000	0.407000  
285.500000	0.501000  
286.000000	0.713000  
286.500000	0.720000  
287.000000	0.713000  
287.500000	0.708000  
288.000000	0.761000  
288.500000	0.799000  
289.000000	0.896000  
289.500000	0.786000  
290.000000	0.900000  
290.500000	0.858000  
291.000000	0.944000  
291.500000	0.950000  
292.000000	0.945000  
292.500000	0.831000  
293.000000	0.843000  
293.500000	0.830000  
294.000000	0.811000  
294.500000	0.903000  
295.000000	0.761000  
295.500000	0.758000  
296.000000	0.740000  
296.500000	0.683000  
297.000000	0.714000  
297.500000	0.569000  
298.000000	0.600000  
298.500000	0.543000  
299.000000	0.447000  
299.500000	0.360000  
300.000000	0.445000  
300.500000	0.345000  
301.000000	0.350000  
301.500000	0.251000  
302.000000	0.242000  
302.500000	0.230000  
303.000000	0.191000  
303.500000	0.172000  
304.000000	0.178000  
304.500000	0.095000  
305.000000	0.080000  
305.500000	0.081000  
306.000000	0.090000  
306.500000	0.053000  
307.000000	0.055000  
307.500000	0.081000  
308.000000	0.051000  
308.500000	0.085999  
309.000000	0.066000  
309.500000	0.052000  
310.000000	0.052000  
310.500000	0.066000  
311.000000	0.035000  
311.500000	0.027000  
312.000000	0.046000  
312.500000	0.058000  
313.000000	0.080000  
313.500000	0.066000  
314.000000	0.050000  
314.500000	0.055000  
315.000000	0.064000  
315.500000	0.044000  
316.000000	0.065000  
316.500000	0.059000  
317.000000	0.069000  
317.500000	0.079000  
318.000000	0.086999  
318.500000	0.076000  
319.000000	0.059000  
319.500000	0.034000  
320.000000	0.061000  
320.500000	0.075000  
321.000000	0.089000  
321.500000	0.033000  
322.000000	0.060000  
322.500000	0.079000  
323.000000	0.069000  
323.500000	0.059000  
324.000000	0.068000  
324.500000	0.065000  
325.000000	0.038000  
325.500000	0.020000  
326.000000	0.041000  
326.500000	0.065000  
327.000000	0.047000  
327.500000	0.050000  
328.000000	0.071999  
328.500000	0.053000  
329.000000	0.046000  
329.500000	0.045000  
330.000000	0.028000  
330.500000	0.075000  
331.000000	0.048000  
331.500000	0.071999  
332.000000	0.076000  
332.500000	0.046000  
333.000000	0.064000  
333.500000	0.052000  
334.000000	0.041000  
334.500000	0.047000  
335.000000	0.054000  
335.500000	0.060000  
336.000000	0.081000  
336.500000	0.062000  
337.000000	0.035000  
337.500000	0.068000  
338.000000	0.081000  
338.500000	0.106000  
339.000000	0.046000  
339.500000	0.036000  
340.000000	0.041000  
340.500000	0.100000  
341.000000	0.056000  
341.500000	0.050000  
342.000000	0.025000  
342.500000	0.022000  
343.000000	0.058000  
343.500000	0.059000  
344.000000	0.047000  
344.500000	0.056000  
345.000000	0.081000  
345.500000	0.050000  
346.000000	0.092000  
346.500000	0.101000  
347.000000	0.076000  
347.500000	0.068000  
348.000000	0.065000  
348.500000	0.053000  
349.000000	0.054000  
349.500000	0.066000  
350.000000	0.065000  
350.500000	0.079000  
351.000000	0.049000  
351.500000	0.060000  
352.000000	0.059000  
352.500000	0.056000  
353.000000	0.055000  
353.500000	0.054000  
354.000000	0.057000  
354.500000	0.063000  
355.000000	0.046000  
355.500000	0.051000  
356.000000	0.042000  
356.500000	0.045000  
357.000000	0.042000  
357.500000	0.063000  
358.000000	0.056000  
358.500000	0.059000  
359.000000	0.055000  
359.500000	0.081000  
360.000000	0.058000  
360.500000	0.055000  
361.000000	0.059000  
361.500000	0.067000  
362.000000	0.053000  
362.500000	0.052000  
363.000000	0.073000  
363.500000	0.062000  
364.000000	0.031000  
364.500000	0.051000  
365.000000	0.084000  
365.500000	0.077000  
366.000000	0.042000  
366.500000	0.026000  
367.000000	0.070999  
367.500000	0.058000  
368.000000	0.057000  
368.500000	0.044000  
369.000000	0.052000  
369.500000	0.045000  
370.000000	0.075000  
370.500000	0.063000  
371.000000	0.050000  
371.500000	0.125000  
372.000000	0.063000  
372.500000	0.053000  
373.000000	0.104000  
373.500000	0.037000  
374.000000	0.049000  
374.500000	0.027000  
375.000000	0.030000  
375.500000	0.060000  
376.000000	0.056000  
376.500000	0.059000  
377.000000	0.064000  
377.500000	0.058000  
378.000000	0.028000  
378.500000	0.040000  
379.000000	0.028000  
379.500000	0.034000  
380.000000	0.060000  
380.500000	0.069000  
381.000000	0.029000  
381.500000	0.062000  
382.000000	0.061000  
382.500000	0.037000  
383.000000	0.074000  
383.500000	0.060000  
384.000000	0.043000  
384.500000	0.077000  
385.000000	0.062000  
385.500000	0.080000  
386.000000	0.053000  
386.500000	0.056000  
387.000000	0.060000  
387.500000	0.081000  
388.000000	0.075000  
388.500000	0.059000  
389.000000	0.053000  
389.500000	0.061000  
390.000000	0.062000  
390.500000	0.044000  
391.000000	0.065000  
391.500000	0.071999  
392.000000	0.078000  
392.500000	0.128000  
393.000000	0.040000  
393.500000	0.049000  
394.000000	0.079000  
394.500000	0.066000  
395.000000	0.075000  
395.500000	0.045000  
396.000000	0.039000  
396.500000	0.067000  
397.000000	0.115000  
397.500000	0.061000  
398.000000	0.045000  
398.500000	0.064000  
399.000000	0.070999  
399.500000	0.087999  
400.000000	0.085999  
400.500000	0.069000  
401.000000	0.061000  
401.500000	0.044000  
402.000000	0.034000  
402.500000	0.057000  
403.000000	0.060000  
403.500000	0.048000  
404.000000	0.067000  
404.500000	0.063000  
405.000000	0.057000  
405.500000	0.070000  
406.000000	0.051000  
406.500000	0.089000  
407.000000	0.083000  
407.500000	0.081000  
408.000000	0.101000  
408.500000	0.183000  
409.000000	0.100000  
409.500000	0.100000  
410.000000	0.040000  
410.500000	0.041000  
411.000000	0.060000  
411.500000	0.093000  
412.000000	0.061000  
412.500000	0.071999  
413.000000	0.056000  
413.500000	0.065000  
414.000000	0.058000  
414.500000	0.060000  
415.000000	0.033000  
415.500000	0.050000  
416.000000	0.083000  
416.500000	0.081000  
417.000000	0.080000  
417.500000	0.097000  
418.000000	0.100000  
418.500000	0.055000  
419.000000	0.061000  
419.500000	0.071999  
420.000000	0.042000  
420.500000	0.057000  
421.000000	0.085000  
421.500000	0.090000  
422.000000	0.073000  
422.500000	0.050000  
423.000000	0.084000  
423.500000	0.075000  
424.000000	0.024000  
424.500000	0.069000  
425.000000	0.063000  
425.500000	0.026000  
426.000000	0.073000  
426.500000	0.066000  
427.000000	0.079000  
427.500000	0.076000  
428.000000	0.091000  
428.500000	0.083000  
429.000000	0.063000  
429.500000	0.086999  
430.000000	0.064000  
430.500000	0.056000  
431.000000	0.082000  
431.500000	0.085000  
432.000000	0.059000  
432.500000	0.060000  
433.000000	0.037000  
433.500000	0.062000  
434.000000	0.081000  
434.500000	0.074000  
435.000000	0.056000  
435.500000	0.071999  
436.000000	0.036000  
436.500000	0.076000  
437.000000	0.103000  
437.500000	0.069000  
438.000000	0.068000  
438.500000	0.065000  
439.000000	0.053000  
439.500000	0.026000  
440.000000	0.086999  
440.500000	0.120000  
441.000000	0.096000  
441.500000	0.077000  
442.000000	0.068000  
442.500000	0.075000  
443.000000	0.075000  
443.500000	0.070999  
444.000000	0.061000  
444.500000	0.080000  
445.000000	0.073000  
445.500000	0.086999  
446.000000	0.091000  
446.500000	0.043000  
447.000000	0.055000  
447.500000	0.074000  
448.000000	0.079000  
448.500000	0.068000  
449.000000	0.075000  
449.500000	0.080000  
450.000000	0.108000  
450.500000	0.085000  
451.000000	0.083000  
451.500000	0.078000  
452.000000	0.090000  
452.500000	0.096000  
453.000000	0.082000  
453.500000	0.094000  
454.000000	0.069000  
454.500000	0.105000  
455.000000	0.103000  
455.500000	0.149000  
456.000000	0.133000  
456.500000	0.068000  
457.000000	0.126000  
457.500000	0.156000  
458.000000	0.105000  
458.500000	0.133000  
459.000000	0.106000  
459.500000	0.097000  
460.000000	0.163000  
460.500000	0.170000  
461.000000	0.156000  
461.500000	0.098000  
462.000000	0.084000  
462.500000	0.103000  
463.000000	0.103000  
463.500000	0.116000  
464.000000	0.156000  
464.500000	0.131000  
465.000000	0.134000  
465.500000	0.101000  
466.000000	0.110000  
466.500000	0.100000  
467.000000	0.100000  
467.500000	0.083000  
468.000000	0.090000  
468.500000	0.087999  
469.000000	0.083000  
469.500000	0.077000  
470.000000	0.071999  
470.500000	0.095000  
471.000000	0.085000  
471.500000	0.108000  
472.000000	0.085000  
472.500000	0.100000  
473.000000	0.138000  
473.500000	0.139000  
474.000000	0.140000  
474.500000	0.144000  
475.000000	0.138000  
475.500000	0.095000  
476.000000	0.116000  
476.500000	0.155000  
477.000000	0.120000  
477.500000	0.145000  
478.000000	0.121000  
478.500000	0.152000  
479.000000	0.139000  
479.500000	0.127000  
480.000000	0.133000  
480.500000	0.193000  
481.000000	0.126000  
481.500000	0.172000  
482.000000	0.173000  
482.500000	0.166000  
483.000000	0.196000  
483.500000	0.179000  
484.000000	0.176000  
484.500000	0.217000  
485.000000	0.164000  
485.500000	0.207000  
486.000000	0.210000  
486.500000	0.194000  
487.000000	0.175000  
487.500000	0.153000  
488.000000	0.195000  
488.500000	0.199000  
489.000000	0.230000  
489.500000	0.216000  
490.000000	0.162000  
490.500000	0.186000  
491.000000	0.243000  
491.500000	0.207000  
492.000000	0.279000  
492.500000	0.246000  
493.000000	0.219000  
493.500000	0.289000  
494.000000	0.245000  
494.500000	0.221000  
495.000000	0.182000  
495.500000	0.157000  
496.000000	0.187000  
496.500000	0.182000  
497.000000	0.230000  
497.500000	0.217000  
498.000000	0.219000  
498.500000	0.249000  
499.000000	0.290000  
499.500000	0.262000  
500.000000	0.197000  
500.500000	0.264000  
501.000000	0.246000  
501.500000	0.233000  
502.000000	0.173000  
502.500000	0.234000  
503.000000	0.244000  
503.500000	0.242000  
504.000000	0.171000  
504.500000	0.256000  
505.000000	0.262000  
505.500000	0.286000  
506.000000	0.270000  
506.500000	0.310000  
507.000000	0.300000  
507.500000	0.333000  
508.000000	0.276000  
508.500000	0.276000  
509.000000	0.372000  
509.500000	0.345000  
510.000000	0.318000  
510.500000	0.327000  
511.000000	0.339000  
511.500000	0.406000  
512.000000	0.422000  
512.500000	0.488000  
513.000000	0.666000  
513.500000	0.651000  
514.000000	1.057000  
514.500000	1.357000  
515.000000	1.810000  
515.500000	2.287000  
516.000000	3.132000  
516.500000	3.987000  
517.000000	5.593000  
517.500000	7.062000  
518.000000	8.933000  
518.500000	10.635000 
519.000000	12.924000 
519.500000	15.297000 
520.000000	18.224000 
520.500000	20.935000 
521.000000	23.846000 
521.500000	27.120000 
522.000000	31.857000 
522.500000	35.122000 
523.000000	39.759000 
523.500000	44.534000 
524.000000	49.227000 
524.500000	52.132000 
525.000000	56.248000 
525.500000	59.521000 
526.000000	64.099000 
526.500000	69.010000 
527.000000	71.683000 
527.500000	74.528000 
528.000000	78.154000 
528.500000	79.643000 
529.000000	82.009000 
529.500000	83.903000 
530.000000	84.191000 
530.500000	84.566000 
531.000000	84.093000 
531.500000	82.693000 
532.000000	81.571000 
532.500000	78.996000 
533.000000	76.914000 
533.500000	75.611999 
534.000000	72.563000 
534.500000	68.352000 
535.000000	65.287000 
535.500000	62.704000 
536.000000	56.979000 
536.500000	51.459000 
537.000000	47.415000 
537.500000	43.531000 
538.000000	39.003000 
538.500000	34.965000 
539.000000	31.222000 
539.500000	27.502000 
540.000000	23.730000 
540.500000	20.572000 
541.000000	18.158000 
541.500000	15.252000 
542.000000	13.634000 
542.500000	11.567000 
543.000000	10.203000 
543.500000	8.143000  
544.000000	6.859000  
544.500000	5.280000  
545.000000	4.247000  
545.500000	3.364000  
546.000000	2.832000  
546.500000	2.170000  
547.000000	1.765000  
547.500000	1.363000  
548.000000	1.245000  
548.500000	0.967000  

