PE FL                   SPECTRUM    ASCII       PEDS        1.60        
  -1
018CFD~1.SP
19/01/24
10:39:56.00
19/01/24
10:39:56.00


548.500000
1









LS45
415.00
10.00
10.00
SCAN
1
16
100
100
0
600
0
1
0
1
7
ON
435 365 
0 0 0
#HDR
-1
-1
#GR
NM
INT 
0.00002384185791015625
0.0
230.000000
0.500000
638
8
308.713000
0.000000
#DATA
230.000000	0.034000   
230.500000	0.070000   
231.000000	0.097000   
231.500000	0.098000   
232.000000	0.078000   
232.500000	0.064000   
233.000000	0.059000   
233.500000	0.041000   
234.000000	0.091000   
234.500000	0.078000   
235.000000	0.086999   
235.500000	0.075000   
236.000000	0.066000   
236.500000	0.075000   
237.000000	0.066000   
237.500000	0.084000   
238.000000	0.104000   
238.500000	0.036000   
239.000000	0.044000   
239.500000	0.058000   
240.000000	0.033000   
240.500000	0.075000   
241.000000	0.049000   
241.500000	0.063000   
242.000000	0.041000   
242.500000	0.042000   
243.000000	0.061000   
243.500000	0.093000   
244.000000	0.054000   
244.500000	0.043000   
245.000000	0.000000   
245.500000	0.010000   
246.000000	0.045000   
246.500000	0.032000   
247.000000	0.015000   
247.500000	0.058000   
248.000000	0.048000   
248.500000	0.061000   
249.000000	0.051000   
249.500000	0.063000   
250.000000	0.078000   
250.500000	0.062000   
251.000000	0.053000   
251.500000	0.038000   
252.000000	0.093000   
252.500000	0.042000   
253.000000	0.070999   
253.500000	0.070000   
254.000000	0.024000   
254.500000	0.040000   
255.000000	0.047000   
255.500000	0.041000   
256.000000	0.070000   
256.500000	0.089000   
257.000000	0.069000   
257.500000	0.036000   
258.000000	0.041000   
258.500000	0.054000   
259.000000	0.037000   
259.500000	0.068000   
260.000000	0.059000   
260.500000	0.049000   
261.000000	0.065000   
261.500000	0.047000   
262.000000	0.052000   
262.500000	0.125000   
263.000000	0.129000   
263.500000	0.095000   
264.000000	0.083000   
264.500000	0.065000   
265.000000	0.061000   
265.500000	0.048000   
266.000000	0.104000   
266.500000	0.100000   
267.000000	0.068000   
267.500000	0.055000   
268.000000	0.058000   
268.500000	0.059000   
269.000000	0.034000   
269.500000	0.085999   
270.000000	0.065000   
270.500000	0.057000   
271.000000	0.110000   
271.500000	0.099000   
272.000000	0.065000   
272.500000	0.085999   
273.000000	0.068000   
273.500000	0.062000   
274.000000	0.076000   
274.500000	0.148000   
275.000000	0.081000   
275.500000	0.069000   
276.000000	0.085000   
276.500000	0.134000   
277.000000	0.103000   
277.500000	0.145000   
278.000000	0.095000   
278.500000	0.075000   
279.000000	0.084000   
279.500000	0.064000   
280.000000	0.091000   
280.500000	0.132000   
281.000000	0.089000   
281.500000	0.143000   
282.000000	0.089000   
282.500000	0.105000   
283.000000	0.086999   
283.500000	0.083000   
284.000000	0.085000   
284.500000	0.093000   
285.000000	0.110000   
285.500000	0.134000   
286.000000	0.108000   
286.500000	0.124000   
287.000000	0.116000   
287.500000	0.112000   
288.000000	0.125000   
288.500000	0.067000   
289.000000	0.112000   
289.500000	0.110000   
290.000000	0.134000   
290.500000	0.127000   
291.000000	0.141000   
291.500000	0.133000   
292.000000	0.169000   
292.500000	0.123000   
293.000000	0.094000   
293.500000	0.189000   
294.000000	0.167000   
294.500000	0.127000   
295.000000	0.075000   
295.500000	0.124000   
296.000000	0.105000   
296.500000	0.148000   
297.000000	0.180000   
297.500000	0.117000   
298.000000	0.122000   
298.500000	0.138000   
299.000000	0.146000   
299.500000	0.197000   
300.000000	0.171000   
300.500000	0.134000   
301.000000	0.151000   
301.500000	0.114000   
302.000000	0.146000   
302.500000	0.133000   
303.000000	0.154000   
303.500000	0.138000   
304.000000	0.140000   
304.500000	0.214000   
305.000000	0.210000   
305.500000	0.171000   
306.000000	0.162000   
306.500000	0.243000   
307.000000	0.207000   
307.500000	0.170000   
308.000000	0.143000   
308.500000	0.153000   
309.000000	0.141000   
309.500000	0.180000   
310.000000	0.267000   
310.500000	0.208000   
311.000000	0.123000   
311.500000	0.187000   
312.000000	0.170000   
312.500000	0.178000   
313.000000	0.202000   
313.500000	0.188000   
314.000000	0.221000   
314.500000	0.198000   
315.000000	0.205000   
315.500000	0.236000   
316.000000	0.179000   
316.500000	0.196000   
317.000000	0.205000   
317.500000	0.187000   
318.000000	0.201000   
318.500000	0.141000   
319.000000	0.256000   
319.500000	0.243000   
320.000000	0.152000   
320.500000	0.153000   
321.000000	0.148000   
321.500000	0.204000   
322.000000	0.261000   
322.500000	0.157000   
323.000000	0.169000   
323.500000	0.196000   
324.000000	0.176000   
324.500000	0.229000   
325.000000	0.190000   
325.500000	0.226000   
326.000000	0.251000   
326.500000	0.214000   
327.000000	0.184000   
327.500000	0.237000   
328.000000	0.181000   
328.500000	0.202000   
329.000000	0.261000   
329.500000	0.224000   
330.000000	0.246000   
330.500000	0.268000   
331.000000	0.267000   
331.500000	0.247000   
332.000000	0.172000   
332.500000	0.292000   
333.000000	0.226000   
333.500000	0.162000   
334.000000	0.256000   
334.500000	0.260000   
335.000000	0.220000   
335.500000	0.193000   
336.000000	0.253000   
336.500000	0.267000   
337.000000	0.219000   
337.500000	0.292000   
338.000000	0.246000   
338.500000	0.251000   
339.000000	0.243000   
339.500000	0.226000   
340.000000	0.279000   
340.500000	0.305000   
341.000000	0.247000   
341.500000	0.247000   
342.000000	0.241000   
342.500000	0.239000   
343.000000	0.297000   
343.500000	0.251000   
344.000000	0.277000   
344.500000	0.310000   
345.000000	0.299000   
345.500000	0.286000   
346.000000	0.270000   
346.500000	0.231000   
347.000000	0.285000   
347.500000	0.261000   
348.000000	0.299000   
348.500000	0.243000   
349.000000	0.261000   
349.500000	0.228000   
350.000000	0.345000   
350.500000	0.230000   
351.000000	0.201000   
351.500000	0.244000   
352.000000	0.309000   
352.500000	0.373000   
353.000000	0.311000   
353.500000	0.377000   
354.000000	0.288000   
354.500000	0.329000   
355.000000	0.351000   
355.500000	0.282000   
356.000000	0.289000   
356.500000	0.303000   
357.000000	0.399000   
357.500000	0.327000   
358.000000	0.314000   
358.500000	0.416000   
359.000000	0.413000   
359.500000	0.344000   
360.000000	0.392000   
360.500000	0.396000   
361.000000	0.311000   
361.500000	0.370000   
362.000000	0.431000   
362.500000	0.357000   
363.000000	0.391000   
363.500000	0.492000   
364.000000	0.476000   
364.500000	0.510000   
365.000000	0.485000   
365.500000	0.475000   
366.000000	0.443000   
366.500000	0.454000   
367.000000	0.425000   
367.500000	0.407000   
368.000000	0.521000   
368.500000	0.497000   
369.000000	0.469000   
369.500000	0.477000   
370.000000	0.482000   
370.500000	0.606000   
371.000000	0.531000   
371.500000	0.546000   
372.000000	0.556000   
372.500000	0.528000   
373.000000	0.551000   
373.500000	0.508000   
374.000000	0.623000   
374.500000	0.491000   
375.000000	0.546000   
375.500000	0.560000   
376.000000	0.562000   
376.500000	0.684000   
377.000000	0.682000   
377.500000	0.663000   
378.000000	0.632000   
378.500000	0.681000   
379.000000	0.652000   
379.500000	0.656000   
380.000000	0.694000   
380.500000	0.752000   
381.000000	0.889000   
381.500000	0.877000   
382.000000	0.825000   
382.500000	0.843000   
383.000000	0.768000   
383.500000	0.898000   
384.000000	1.065000   
384.500000	1.057000   
385.000000	0.893000   
385.500000	0.921000   
386.000000	0.955000   
386.500000	1.008000   
387.000000	0.996000   
387.500000	0.974000   
388.000000	0.912000   
388.500000	1.036000   
389.000000	1.129000   
389.500000	1.110000   
390.000000	1.151000   
390.500000	1.461000   
391.000000	1.519000   
391.500000	1.733000   
392.000000	1.916000   
392.500000	2.214000   
393.000000	2.849000   
393.500000	3.857000   
394.000000	4.700000   
394.500000	5.957000   
395.000000	7.623000   
395.500000	10.236000  
396.000000	12.992000  
396.500000	16.243000  
397.000000	20.006000  
397.500000	24.862000  
398.000000	28.992000  
398.500000	36.141000  
399.000000	41.415000  
399.500000	51.101000  
400.000000	59.673000  
400.500000	69.226000  
401.000000	78.813000  
401.500000	89.544000  
402.000000	102.699000 
402.500000	114.937000 
403.000000	129.133000 
403.500000	139.353000 
404.000000	156.682000 
404.500000	167.057000 
405.000000	184.077000 
405.500000	197.557000 
406.000000	211.181000 
406.500000	225.194000 
407.000000	239.579000 
407.500000	252.198000 
408.000000	262.162000 
408.500000	273.594000 
409.000000	284.476000 
409.500000	294.341000 
410.000000	298.114000 
410.500000	303.688000 
411.000000	304.638000 
411.500000	308.355000 
412.000000	308.713000 
412.500000	304.841000 
413.000000	299.885000 
413.500000	298.531000 
414.000000	290.353000 
414.500000	280.305000 
415.000000	273.598000 
415.500000	261.858000 
416.000000	247.139000 
416.500000	232.885000 
417.000000	219.397000 
417.500000	205.842000 
418.000000	192.971000 
418.500000	177.078000 
419.000000	159.700000 
419.500000	143.810000 
420.000000	131.980000 
420.500000	116.021000 
421.000000	104.408000 
421.500000	89.512000  
422.000000	77.991000  
422.500000	68.217000  
423.000000	58.052000  
423.500000	49.052000  
424.000000	42.775000  
424.500000	35.310000  
425.000000	28.969000  
425.500000	22.755000  
426.000000	18.760000  
426.500000	15.633000  
427.000000	11.817000  
427.500000	10.285000  
428.000000	7.493000   
428.500000	6.476000   
429.000000	5.543000   
429.500000	4.532000   
430.000000	3.488000   
430.500000	3.118000   
431.000000	2.835000   
431.500000	2.938000   
432.000000	2.701000   
432.500000	2.421000   
433.000000	2.370000   
433.500000	2.378000   
434.000000	2.395000   
434.500000	2.550000   
435.000000	2.424000   
435.500000	2.632000   
436.000000	2.461000   
436.500000	2.557000   
437.000000	2.397000   
437.500000	2.390000   
438.000000	2.399000   
438.500000	2.447000   
439.000000	2.585000   
439.500000	2.563000   
440.000000	2.436000   
440.500000	2.643000   
441.000000	2.573000   
441.500000	2.725000   
442.000000	2.519000   
442.500000	2.827000   
443.000000	2.668000   
443.500000	2.634000   
444.000000	2.585000   
444.500000	2.331000   
445.000000	2.645000   
445.500000	2.527000   
446.000000	2.343000   
446.500000	2.087000   
447.000000	1.931000   
447.500000	2.114000   
448.000000	1.929000   
448.500000	2.015000   
449.000000	1.857000   
449.500000	1.776000   
450.000000	1.783000   
450.500000	1.637000   
451.000000	1.611000   
451.500000	1.677000   
452.000000	1.701000   
452.500000	1.609000   
453.000000	1.398000   
453.500000	1.374000   
454.000000	1.472000   
454.500000	1.369000   
455.000000	1.379000   
455.500000	1.445000   
456.000000	1.527000   
456.500000	1.394000   
457.000000	1.375000   
457.500000	1.487000   
458.000000	1.607000   
458.500000	1.680000   
459.000000	1.858000   
459.500000	2.069000   
460.000000	1.917000   
460.500000	2.109000   
461.000000	2.387000   
461.500000	2.820000   
462.000000	3.231000   
462.500000	3.273000   
463.000000	3.697000   
463.500000	4.001000   
464.000000	4.245000   
464.500000	4.557000   
465.000000	5.130000   
465.500000	5.479000   
466.000000	6.200000   
466.500000	6.461000   
467.000000	6.692000   
467.500000	7.030000   
468.000000	7.860000   
468.500000	8.281000   
469.000000	8.962000   
469.500000	9.314000   
470.000000	10.484000  
470.500000	10.538000  
471.000000	11.733000  
471.500000	11.961000  
472.000000	11.892000  
472.500000	12.071000  
473.000000	13.646000  
473.500000	13.833000  
474.000000	14.132000  
474.500000	13.771000  
475.000000	14.837000  
475.500000	15.014000  
476.000000	14.754000  
476.500000	15.546000  
477.000000	15.927000  
477.500000	16.166000  
478.000000	16.010000  
478.500000	15.474000  
479.000000	15.862000  
479.500000	15.257000  
480.000000	14.983000  
480.500000	14.561000  
481.000000	14.279000  
481.500000	14.162000  
482.000000	13.888000  
482.500000	13.302000  
483.000000	13.450000  
483.500000	13.362000  
484.000000	12.126000  
484.500000	11.483000  
485.000000	11.038000  
485.500000	10.939000  
486.000000	10.110000  
486.500000	9.023000   
487.000000	8.878000   
487.500000	8.266000   
488.000000	8.066000   
488.500000	7.622000   
489.000000	6.971000   
489.500000	6.010000   
490.000000	6.015000   
490.500000	5.710000   
491.000000	4.824000   
491.500000	4.388000   
492.000000	4.088000   
492.500000	3.645000   
493.000000	3.675000   
493.500000	3.188000   
494.000000	2.922000   
494.500000	2.631000   
495.000000	2.337000   
495.500000	2.025000   
496.000000	1.975000   
496.500000	1.848000   
497.000000	1.716000   
497.500000	1.432000   
498.000000	1.238000   
498.500000	1.151000   
499.000000	1.061000   
499.500000	1.160000   
500.000000	0.919000   
500.500000	0.806000   
501.000000	0.768000   
501.500000	0.637000   
502.000000	0.646000   
502.500000	0.525000   
503.000000	0.662000   
503.500000	0.571000   
504.000000	0.509000   
504.500000	0.404000   
505.000000	0.424000   
505.500000	0.461000   
506.000000	0.437000   
506.500000	0.450000   
507.000000	0.445000   
507.500000	0.411000   
508.000000	0.343000   
508.500000	0.359000   
509.000000	0.342000   
509.500000	0.460000   
510.000000	0.380000   
510.500000	0.310000   
511.000000	0.253000   
511.500000	0.266000   
512.000000	0.271000   
512.500000	0.296000   
513.000000	0.340000   
513.500000	0.337000   
514.000000	0.306000   
514.500000	0.233000   
515.000000	0.239000   
515.500000	0.218000   
516.000000	0.226000   
516.500000	0.268000   
517.000000	0.223000   
517.500000	0.231000   
518.000000	0.291000   
518.500000	0.272000   
519.000000	0.223000   
519.500000	0.211000   
520.000000	0.222000   
520.500000	0.261000   
521.000000	0.246000   
521.500000	0.232000   
522.000000	0.248000   
522.500000	0.247000   
523.000000	0.282000   
523.500000	0.266000   
524.000000	0.248000   
524.500000	0.244000   
525.000000	0.208000   
525.500000	0.197000   
526.000000	0.207000   
526.500000	0.184000   
527.000000	0.194000   
527.500000	0.223000   
528.000000	0.191000   
528.500000	0.216000   
529.000000	0.149000   
529.500000	0.170000   
530.000000	0.209000   
530.500000	0.171000   
531.000000	0.160000   
531.500000	0.144000   
532.000000	0.165000   
532.500000	0.186000   
533.000000	0.172000   
533.500000	0.212000   
534.000000	0.147000   
534.500000	0.161000   
535.000000	0.216000   
535.500000	0.154000   
536.000000	0.167000   
536.500000	0.162000   
537.000000	0.188000   
537.500000	0.220000   
538.000000	0.166000   
538.500000	0.149000   
539.000000	0.162000   
539.500000	0.138000   
540.000000	0.206000   
540.500000	0.172000   
541.000000	0.157000   
541.500000	0.181000   
542.000000	0.189000   
542.500000	0.175000   
543.000000	0.214000   
543.500000	0.152000   
544.000000	0.186000   
544.500000	0.175000   
545.000000	0.208000   
545.500000	0.202000   
546.000000	0.152000   
546.500000	0.142000   
547.000000	0.153000   
547.500000	0.142000   
548.000000	0.201000   
548.500000	0.192000   

