PE FL                   SPECTRUM    ASCII       PEDS        1.60        
  -1
01700A~1.SP
19/01/24
10:43:43.00
19/01/24
10:43:43.00


548.500000
1









LS45
440.00
10.00
10.00
SCAN
1
16
100
100
0
600
0
1
0
1
7
ON
435 365 
0 0 0
#HDR
-1
-1
#GR
NM
INT 
0.00002384185791015625
0.0
230.000000
0.500000
638
8
247.823000
0.019000
#DATA
230.000000	0.170000   
230.500000	0.103000   
231.000000	0.094000   
231.500000	0.106000   
232.000000	0.083000   
232.500000	0.096000   
233.000000	0.093000   
233.500000	0.085999   
234.000000	0.141000   
234.500000	0.111000   
235.000000	0.111000   
235.500000	0.136000   
236.000000	0.127000   
236.500000	0.123000   
237.000000	0.203000   
237.500000	0.153000   
238.000000	0.164000   
238.500000	0.114000   
239.000000	0.123000   
239.500000	0.147000   
240.000000	0.089000   
240.500000	0.083000   
241.000000	0.062000   
241.500000	0.085000   
242.000000	0.123000   
242.500000	0.119000   
243.000000	0.079000   
243.500000	0.050000   
244.000000	0.021000   
244.500000	0.097000   
245.000000	0.079000   
245.500000	0.055000   
246.000000	0.022000   
246.500000	0.060000   
247.000000	0.092000   
247.500000	0.078000   
248.000000	0.085000   
248.500000	0.041000   
249.000000	0.067000   
249.500000	0.056000   
250.000000	0.027000   
250.500000	0.019000   
251.000000	0.041000   
251.500000	0.056000   
252.000000	0.022000   
252.500000	0.024000   
253.000000	0.100000   
253.500000	0.053000   
254.000000	0.066000   
254.500000	0.085000   
255.000000	0.070999   
255.500000	0.062000   
256.000000	0.058000   
256.500000	0.052000   
257.000000	0.056000   
257.500000	0.058000   
258.000000	0.061000   
258.500000	0.051000   
259.000000	0.040000   
259.500000	0.064000   
260.000000	0.041000   
260.500000	0.067000   
261.000000	0.051000   
261.500000	0.048000   
262.000000	0.035000   
262.500000	0.034000   
263.000000	0.048000   
263.500000	0.058000   
264.000000	0.066000   
264.500000	0.035000   
265.000000	0.087999   
265.500000	0.057000   
266.000000	0.032000   
266.500000	0.039000   
267.000000	0.062000   
267.500000	0.038000   
268.000000	0.060000   
268.500000	0.059000   
269.000000	0.099000   
269.500000	0.061000   
270.000000	0.037000   
270.500000	0.094000   
271.000000	0.044000   
271.500000	0.087999   
272.000000	0.065000   
272.500000	0.061000   
273.000000	0.039000   
273.500000	0.044000   
274.000000	0.091000   
274.500000	0.074000   
275.000000	0.060000   
275.500000	0.052000   
276.000000	0.063000   
276.500000	0.076000   
277.000000	0.063000   
277.500000	0.089000   
278.000000	0.089000   
278.500000	0.077000   
279.000000	0.097000   
279.500000	0.063000   
280.000000	0.079000   
280.500000	0.053000   
281.000000	0.078000   
281.500000	0.083000   
282.000000	0.093000   
282.500000	0.090000   
283.000000	0.064000   
283.500000	0.074000   
284.000000	0.100000   
284.500000	0.052000   
285.000000	0.070999   
285.500000	0.116000   
286.000000	0.085000   
286.500000	0.116000   
287.000000	0.085999   
287.500000	0.052000   
288.000000	0.075000   
288.500000	0.092000   
289.000000	0.080000   
289.500000	0.078000   
290.000000	0.083000   
290.500000	0.096000   
291.000000	0.069000   
291.500000	0.045000   
292.000000	0.056000   
292.500000	0.098000   
293.000000	0.103000   
293.500000	0.111000   
294.000000	0.124000   
294.500000	0.104000   
295.000000	0.066000   
295.500000	0.093000   
296.000000	0.139000   
296.500000	0.085000   
297.000000	0.075000   
297.500000	0.112000   
298.000000	0.109000   
298.500000	0.118000   
299.000000	0.090000   
299.500000	0.096000   
300.000000	0.110000   
300.500000	0.124000   
301.000000	0.094000   
301.500000	0.136000   
302.000000	0.117000   
302.500000	0.085999   
303.000000	0.105000   
303.500000	0.116000   
304.000000	0.137000   
304.500000	0.108000   
305.000000	0.129000   
305.500000	0.198000   
306.000000	0.123000   
306.500000	0.130000   
307.000000	0.178000   
307.500000	0.121000   
308.000000	0.203000   
308.500000	0.124000   
309.000000	0.121000   
309.500000	0.106000   
310.000000	0.152000   
310.500000	0.153000   
311.000000	0.076000   
311.500000	0.124000   
312.000000	0.162000   
312.500000	0.239000   
313.000000	0.202000   
313.500000	0.183000   
314.000000	0.127000   
314.500000	0.141000   
315.000000	0.140000   
315.500000	0.115000   
316.000000	0.107000   
316.500000	0.156000   
317.000000	0.154000   
317.500000	0.127000   
318.000000	0.183000   
318.500000	0.188000   
319.000000	0.148000   
319.500000	0.149000   
320.000000	0.185000   
320.500000	0.137000   
321.000000	0.155000   
321.500000	0.153000   
322.000000	0.136000   
322.500000	0.196000   
323.000000	0.137000   
323.500000	0.126000   
324.000000	0.121000   
324.500000	0.199000   
325.000000	0.157000   
325.500000	0.154000   
326.000000	0.180000   
326.500000	0.184000   
327.000000	0.173000   
327.500000	0.140000   
328.000000	0.174000   
328.500000	0.176000   
329.000000	0.107000   
329.500000	0.220000   
330.000000	0.127000   
330.500000	0.224000   
331.000000	0.209000   
331.500000	0.238000   
332.000000	0.196000   
332.500000	0.194000   
333.000000	0.181000   
333.500000	0.192000   
334.000000	0.205000   
334.500000	0.202000   
335.000000	0.168000   
335.500000	0.198000   
336.000000	0.235000   
336.500000	0.246000   
337.000000	0.230000   
337.500000	0.213000   
338.000000	0.162000   
338.500000	0.215000   
339.000000	0.175000   
339.500000	0.188000   
340.000000	0.183000   
340.500000	0.154000   
341.000000	0.241000   
341.500000	0.177000   
342.000000	0.179000   
342.500000	0.200000   
343.000000	0.196000   
343.500000	0.222000   
344.000000	0.194000   
344.500000	0.202000   
345.000000	0.209000   
345.500000	0.175000   
346.000000	0.187000   
346.500000	0.208000   
347.000000	0.204000   
347.500000	0.242000   
348.000000	0.289000   
348.500000	0.255000   
349.000000	0.197000   
349.500000	0.152000   
350.000000	0.202000   
350.500000	0.117000   
351.000000	0.176000   
351.500000	0.211000   
352.000000	0.188000   
352.500000	0.183000   
353.000000	0.255000   
353.500000	0.203000   
354.000000	0.270000   
354.500000	0.196000   
355.000000	0.246000   
355.500000	0.192000   
356.000000	0.183000   
356.500000	0.199000   
357.000000	0.194000   
357.500000	0.150000   
358.000000	0.132000   
358.500000	0.229000   
359.000000	0.259000   
359.500000	0.188000   
360.000000	0.210000   
360.500000	0.134000   
361.000000	0.166000   
361.500000	0.262000   
362.000000	0.248000   
362.500000	0.247000   
363.000000	0.230000   
363.500000	0.167000   
364.000000	0.205000   
364.500000	0.280000   
365.000000	0.194000   
365.500000	0.168000   
366.000000	0.136000   
366.500000	0.206000   
367.000000	0.213000   
367.500000	0.177000   
368.000000	0.248000   
368.500000	0.192000   
369.000000	0.231000   
369.500000	0.219000   
370.000000	0.184000   
370.500000	0.259000   
371.000000	0.240000   
371.500000	0.325000   
372.000000	0.220000   
372.500000	0.228000   
373.000000	0.241000   
373.500000	0.226000   
374.000000	0.217000   
374.500000	0.283000   
375.000000	0.285000   
375.500000	0.238000   
376.000000	0.220000   
376.500000	0.316000   
377.000000	0.263000   
377.500000	0.292000   
378.000000	0.217000   
378.500000	0.241000   
379.000000	0.316000   
379.500000	0.232000   
380.000000	0.220000   
380.500000	0.207000   
381.000000	0.291000   
381.500000	0.278000   
382.000000	0.305000   
382.500000	0.257000   
383.000000	0.206000   
383.500000	0.199000   
384.000000	0.211000   
384.500000	0.225000   
385.000000	0.324000   
385.500000	0.309000   
386.000000	0.391000   
386.500000	0.382000   
387.000000	0.302000   
387.500000	0.315000   
388.000000	0.320000   
388.500000	0.397000   
389.000000	0.359000   
389.500000	0.284000   
390.000000	0.369000   
390.500000	0.307000   
391.000000	0.307000   
391.500000	0.440000   
392.000000	0.368000   
392.500000	0.315000   
393.000000	0.334000   
393.500000	0.333000   
394.000000	0.447000   
394.500000	0.379000   
395.000000	0.310000   
395.500000	0.448000   
396.000000	0.487000   
396.500000	0.444000   
397.000000	0.471000   
397.500000	0.455000   
398.000000	0.438000   
398.500000	0.361000   
399.000000	0.406000   
399.500000	0.489000   
400.000000	0.494000   
400.500000	0.452000   
401.000000	0.487000   
401.500000	0.541000   
402.000000	0.530000   
402.500000	0.538000   
403.000000	0.549000   
403.500000	0.567999   
404.000000	0.483000   
404.500000	0.550000   
405.000000	0.669000   
405.500000	0.531000   
406.000000	0.538000   
406.500000	0.644000   
407.000000	0.683000   
407.500000	0.601000   
408.000000	0.610000   
408.500000	0.604000   
409.000000	0.680000   
409.500000	0.636000   
410.000000	0.660000   
410.500000	0.776000   
411.000000	0.726000   
411.500000	0.636000   
412.000000	0.710000   
412.500000	0.656000   
413.000000	0.738000   
413.500000	0.839000   
414.000000	0.848000   
414.500000	0.899000   
415.000000	0.985000   
415.500000	0.948000   
416.000000	1.127000   
416.500000	1.330000   
417.000000	1.435000   
417.500000	1.826000   
418.000000	2.118000   
418.500000	3.043000   
419.000000	3.733000   
419.500000	5.458000   
420.000000	6.262000   
420.500000	8.462999   
421.000000	10.524000  
421.500000	14.052000  
422.000000	18.244000  
422.500000	22.475000  
423.000000	26.173000  
423.500000	32.271000  
424.000000	38.665000  
424.500000	45.795000  
425.000000	54.606000  
425.500000	65.443000  
426.000000	72.967000  
426.500000	83.762000  
427.000000	93.845000  
427.500000	102.972000 
428.000000	114.080000 
428.500000	128.580000 
429.000000	142.197000 
429.500000	153.287000 
430.000000	165.775000 
430.500000	174.951000 
431.000000	189.068000 
431.500000	200.474000 
432.000000	211.076000 
432.500000	216.740000 
433.000000	229.446000 
433.500000	234.391000 
434.000000	241.834000 
434.500000	245.897000 
435.000000	247.343000 
435.500000	244.702000 
436.000000	247.823000 
436.500000	246.648000 
437.000000	245.751000 
437.500000	241.652000 
438.000000	234.762000 
438.500000	229.296000 
439.000000	221.998000 
439.500000	213.435000 
440.000000	203.095000 
440.500000	193.114000 
441.000000	176.010000 
441.500000	164.275000 
442.000000	152.901000 
442.500000	143.060000 
443.000000	129.622000 
443.500000	118.221000 
444.000000	104.258000 
444.500000	91.812000  
445.000000	83.322999  
445.500000	73.429000  
446.000000	65.128000  
446.500000	55.687000  
447.000000	47.496000  
447.500000	38.987000  
448.000000	33.415000  
448.500000	27.156000  
449.000000	23.221000  
449.500000	17.955000  
450.000000	15.658000  
450.500000	11.822000  
451.000000	10.150000  
451.500000	8.234000   
452.000000	6.855000   
452.500000	5.384000   
453.000000	4.461000   
453.500000	3.361000   
454.000000	2.735000   
454.500000	2.481000   
455.000000	2.354000   
455.500000	2.045000   
456.000000	1.858000   
456.500000	1.875000   
457.000000	1.892000   
457.500000	1.952000   
458.000000	1.816000   
458.500000	1.929000   
459.000000	1.855000   
459.500000	1.871000   
460.000000	1.738000   
460.500000	1.823000   
461.000000	1.982000   
461.500000	1.784000   
462.000000	1.767000   
462.500000	1.956000   
463.000000	2.179000   
463.500000	2.221000   
464.000000	2.222000   
464.500000	2.354000   
465.000000	2.246000   
465.500000	2.290000   
466.000000	2.398000   
466.500000	2.578000   
467.000000	2.544000   
467.500000	2.687000   
468.000000	2.680000   
468.500000	2.447000   
469.000000	2.558000   
469.500000	2.665000   
470.000000	2.782000   
470.500000	2.705000   
471.000000	2.826000   
471.500000	2.742000   
472.000000	2.836000   
472.500000	2.780000   
473.000000	2.626000   
473.500000	2.401000   
474.000000	2.797000   
474.500000	2.869000   
475.000000	2.761000   
475.500000	2.392000   
476.000000	2.255000   
476.500000	2.112000   
477.000000	2.116000   
477.500000	2.091000   
478.000000	2.294000   
478.500000	1.969000   
479.000000	1.891000   
479.500000	1.710000   
480.000000	1.830000   
480.500000	1.513000   
481.000000	1.425000   
481.500000	1.422000   
482.000000	1.224000   
482.500000	1.237000   
483.000000	1.206000   
483.500000	1.140000   
484.000000	1.117000   
484.500000	1.188000   
485.000000	1.196000   
485.500000	1.030000   
486.000000	0.873000   
486.500000	0.813999   
487.000000	0.736000   
487.500000	0.842000   
488.000000	0.937999   
488.500000	0.843000   
489.000000	0.735000   
489.500000	0.865000   
490.000000	0.871000   
490.500000	0.919000   
491.000000	0.959000   
491.500000	0.852000   
492.000000	0.995000   
492.500000	1.168000   
493.000000	1.116000   
493.500000	1.062000   
494.000000	1.128000   
494.500000	1.346000   
495.000000	1.515000   
495.500000	1.537000   
496.000000	1.652000   
496.500000	1.832000   
497.000000	2.005000   
497.500000	2.277000   
498.000000	2.326000   
498.500000	2.395000   
499.000000	2.723000   
499.500000	3.205000   
500.000000	3.211000   
500.500000	3.665000   
501.000000	3.981000   
501.500000	3.654000   
502.000000	4.418000   
502.500000	4.487000   
503.000000	4.821000   
503.500000	4.896000   
504.000000	5.290000   
504.500000	5.452000   
505.000000	5.679000   
505.500000	5.704000   
506.000000	6.137000   
506.500000	6.295000   
507.000000	6.487000   
507.500000	6.892000   
508.000000	6.976000   
508.500000	7.423000   
509.000000	7.668000   
509.500000	7.544000   
510.000000	7.516000   
510.500000	7.343000   
511.000000	7.755000   
511.500000	7.685000   
512.000000	8.057000   
512.500000	7.658000   
513.000000	7.612000   
513.500000	7.198000   
514.000000	7.333000   
514.500000	7.600000   
515.000000	7.146000   
515.500000	7.219000   
516.000000	6.672000   
516.500000	7.095000   
517.000000	6.796000   
517.500000	6.042000   
518.000000	6.114000   
518.500000	5.643000   
519.000000	5.436000   
519.500000	5.264000   
520.000000	4.905000   
520.500000	4.903000   
521.000000	4.519000   
521.500000	4.330000   
522.000000	3.872000   
522.500000	3.489000   
523.000000	3.368000   
523.500000	3.273000   
524.000000	3.006000   
524.500000	2.865000   
525.000000	2.407000   
525.500000	2.291000   
526.000000	1.949000   
526.500000	1.926000   
527.000000	1.716000   
527.500000	1.544000   
528.000000	1.426000   
528.500000	1.298000   
529.000000	1.041000   
529.500000	1.194000   
530.000000	1.181000   
530.500000	0.757000   
531.000000	0.750000   
531.500000	0.653000   
532.000000	0.548000   
532.500000	0.635000   
533.000000	0.517000   
533.500000	0.510000   
534.000000	0.509000   
534.500000	0.408000   
535.000000	0.344000   
535.500000	0.298000   
536.000000	0.410000   
536.500000	0.340000   
537.000000	0.301000   
537.500000	0.222000   
538.000000	0.223000   
538.500000	0.249000   
539.000000	0.157000   
539.500000	0.189000   
540.000000	0.213000   
540.500000	0.238000   
541.000000	0.197000   
541.500000	0.193000   
542.000000	0.181000   
542.500000	0.197000   
543.000000	0.226000   
543.500000	0.210000   
544.000000	0.189000   
544.500000	0.213000   
545.000000	0.135000   
545.500000	0.111000   
546.000000	0.162000   
546.500000	0.138000   
547.000000	0.143000   
547.500000	0.123000   
548.000000	0.195000   
548.500000	0.163000   

