PE FL                   SPECTRUM    ASCII       PEDS        1.60        
  -1
0124DI~3.SP
19/01/24
10:52:46.00
19/01/24
10:52:46.00


548.500000
1









LS45
500.00
10.00
10.00
SCAN
1
16
100
100
0
600
0
1
0
1
7
ON
435 365 
0 0 0
#HDR
-1
-1
#GR
NM
INT 
0.00002384185791015625
0.0
230.000000
0.500000
638
8
151.527000
0.013000
#DATA
230.000000	0.032000   
230.500000	0.013000   
231.000000	0.060000   
231.500000	0.058000   
232.000000	0.063000   
232.500000	0.057000   
233.000000	0.048000   
233.500000	0.108000   
234.000000	0.098000   
234.500000	0.123000   
235.000000	0.196000   
235.500000	0.291000   
236.000000	0.362000   
236.500000	0.446000   
237.000000	0.483000   
237.500000	0.530000   
238.000000	0.696000   
238.500000	0.848000   
239.000000	0.944000   
239.500000	1.229000   
240.000000	1.249000   
240.500000	1.285000   
241.000000	1.466000   
241.500000	1.654000   
242.000000	1.815000   
242.500000	1.959000   
243.000000	2.268000   
243.500000	2.278000   
244.000000	2.069000   
244.500000	2.209000   
245.000000	2.331000   
245.500000	2.733000   
246.000000	2.718000   
246.500000	2.557000   
247.000000	2.706000   
247.500000	2.474000   
248.000000	2.766000   
248.500000	2.583000   
249.000000	2.726000   
249.500000	2.340000   
250.000000	2.315000   
250.500000	2.381000   
251.000000	2.131000   
251.500000	1.706000   
252.000000	1.734000   
252.500000	1.637000   
253.000000	1.663000   
253.500000	1.423000   
254.000000	1.359000   
254.500000	1.473000   
255.000000	1.118000   
255.500000	0.793000   
256.000000	0.735000   
256.500000	0.780000   
257.000000	0.613000   
257.500000	0.545000   
258.000000	0.420000   
258.500000	0.461000   
259.000000	0.565999   
259.500000	0.593000   
260.000000	0.587000   
260.500000	0.582000   
261.000000	0.664000   
261.500000	0.735000   
262.000000	0.875000   
262.500000	1.048000   
263.000000	1.069000   
263.500000	1.138000   
264.000000	1.115000   
264.500000	1.227000   
265.000000	1.315000   
265.500000	1.530000   
266.000000	1.568000   
266.500000	1.636000   
267.000000	1.726000   
267.500000	1.660000   
268.000000	1.876000   
268.500000	2.141000   
269.000000	1.898000   
269.500000	1.825000   
270.000000	1.951000   
270.500000	1.873000   
271.000000	1.846000   
271.500000	1.640000   
272.000000	1.821000   
272.500000	1.692000   
273.000000	1.774000   
273.500000	1.701000   
274.000000	1.533000   
274.500000	1.298000   
275.000000	1.367000   
275.500000	0.956000   
276.000000	0.986000   
276.500000	0.860000   
277.000000	0.896000   
277.500000	0.905000   
278.000000	0.805000   
278.500000	0.650000   
279.000000	0.515000   
279.500000	0.448000   
280.000000	0.383000   
280.500000	0.300000   
281.000000	0.237000   
281.500000	0.210000   
282.000000	0.197000   
282.500000	0.147000   
283.000000	0.108000   
283.500000	0.114000   
284.000000	0.131000   
284.500000	0.085000   
285.000000	0.074000   
285.500000	0.081000   
286.000000	0.075000   
286.500000	0.109000   
287.000000	0.067000   
287.500000	0.079000   
288.000000	0.075000   
288.500000	0.066000   
289.000000	0.056000   
289.500000	0.081000   
290.000000	0.068000   
290.500000	0.040000   
291.000000	0.065000   
291.500000	0.066000   
292.000000	0.095000   
292.500000	0.067000   
293.000000	0.103000   
293.500000	0.059000   
294.000000	0.051000   
294.500000	0.077000   
295.000000	0.093000   
295.500000	0.064000   
296.000000	0.073000   
296.500000	0.108000   
297.000000	0.091000   
297.500000	0.086999   
298.000000	0.101000   
298.500000	0.068000   
299.000000	0.089000   
299.500000	0.119000   
300.000000	0.081000   
300.500000	0.086999   
301.000000	0.079000   
301.500000	0.054000   
302.000000	0.115000   
302.500000	0.115000   
303.000000	0.119000   
303.500000	0.083000   
304.000000	0.128000   
304.500000	0.110000   
305.000000	0.096000   
305.500000	0.069000   
306.000000	0.083000   
306.500000	0.057000   
307.000000	0.066000   
307.500000	0.086999   
308.000000	0.109000   
308.500000	0.066000   
309.000000	0.103000   
309.500000	0.080000   
310.000000	0.082000   
310.500000	0.115000   
311.000000	0.093000   
311.500000	0.104000   
312.000000	0.080000   
312.500000	0.138000   
313.000000	0.114000   
313.500000	0.099000   
314.000000	0.091000   
314.500000	0.082000   
315.000000	0.098000   
315.500000	0.094000   
316.000000	0.082000   
316.500000	0.074000   
317.000000	0.144000   
317.500000	0.133000   
318.000000	0.073000   
318.500000	0.084000   
319.000000	0.074000   
319.500000	0.078000   
320.000000	0.069000   
320.500000	0.091000   
321.000000	0.077000   
321.500000	0.091000   
322.000000	0.126000   
322.500000	0.098000   
323.000000	0.085000   
323.500000	0.091000   
324.000000	0.090000   
324.500000	0.112000   
325.000000	0.107000   
325.500000	0.113000   
326.000000	0.116000   
326.500000	0.110000   
327.000000	0.105000   
327.500000	0.091000   
328.000000	0.082000   
328.500000	0.102000   
329.000000	0.118000   
329.500000	0.124000   
330.000000	0.143000   
330.500000	0.116000   
331.000000	0.044000   
331.500000	0.070999   
332.000000	0.116000   
332.500000	0.086999   
333.000000	0.106000   
333.500000	0.077000   
334.000000	0.074000   
334.500000	0.066000   
335.000000	0.081000   
335.500000	0.101000   
336.000000	0.118000   
336.500000	0.092000   
337.000000	0.142000   
337.500000	0.160000   
338.000000	0.157000   
338.500000	0.133000   
339.000000	0.143000   
339.500000	0.060000   
340.000000	0.087999   
340.500000	0.127000   
341.000000	0.121000   
341.500000	0.105000   
342.000000	0.085000   
342.500000	0.095000   
343.000000	0.094000   
343.500000	0.100000   
344.000000	0.155000   
344.500000	0.146000   
345.000000	0.109000   
345.500000	0.135000   
346.000000	0.113000   
346.500000	0.085000   
347.000000	0.107000   
347.500000	0.138000   
348.000000	0.071999   
348.500000	0.116000   
349.000000	0.136000   
349.500000	0.064000   
350.000000	0.093000   
350.500000	0.110000   
351.000000	0.176000   
351.500000	0.111000   
352.000000	0.111000   
352.500000	0.110000   
353.000000	0.097000   
353.500000	0.163000   
354.000000	0.113000   
354.500000	0.142000   
355.000000	0.155000   
355.500000	0.133000   
356.000000	0.127000   
356.500000	0.105000   
357.000000	0.107000   
357.500000	0.108000   
358.000000	0.102000   
358.500000	0.110000   
359.000000	0.058000   
359.500000	0.108000   
360.000000	0.119000   
360.500000	0.153000   
361.000000	0.216000   
361.500000	0.073000   
362.000000	0.114000   
362.500000	0.114000   
363.000000	0.153000   
363.500000	0.124000   
364.000000	0.138000   
364.500000	0.105000   
365.000000	0.178000   
365.500000	0.212000   
366.000000	0.116000   
366.500000	0.118000   
367.000000	0.101000   
367.500000	0.136000   
368.000000	0.141000   
368.500000	0.120000   
369.000000	0.112000   
369.500000	0.144000   
370.000000	0.098000   
370.500000	0.107000   
371.000000	0.119000   
371.500000	0.117000   
372.000000	0.209000   
372.500000	0.236000   
373.000000	0.097000   
373.500000	0.114000   
374.000000	0.162000   
374.500000	0.158000   
375.000000	0.138000   
375.500000	0.105000   
376.000000	0.096000   
376.500000	0.136000   
377.000000	0.080000   
377.500000	0.110000   
378.000000	0.148000   
378.500000	0.092000   
379.000000	0.107000   
379.500000	0.148000   
380.000000	0.091000   
380.500000	0.150000   
381.000000	0.161000   
381.500000	0.125000   
382.000000	0.162000   
382.500000	0.103000   
383.000000	0.156000   
383.500000	0.127000   
384.000000	0.087999   
384.500000	0.184000   
385.000000	0.278000   
385.500000	0.185000   
386.000000	0.100000   
386.500000	0.136000   
387.000000	0.173000   
387.500000	0.172000   
388.000000	0.100000   
388.500000	0.165000   
389.000000	0.142000   
389.500000	0.098000   
390.000000	0.111000   
390.500000	0.117000   
391.000000	0.114000   
391.500000	0.122000   
392.000000	0.095000   
392.500000	0.105000   
393.000000	0.118000   
393.500000	0.105000   
394.000000	0.151000   
394.500000	0.153000   
395.000000	0.152000   
395.500000	0.177000   
396.000000	0.123000   
396.500000	0.151000   
397.000000	0.164000   
397.500000	0.106000   
398.000000	0.146000   
398.500000	0.108000   
399.000000	0.115000   
399.500000	0.117000   
400.000000	0.186000   
400.500000	0.097000   
401.000000	0.101000   
401.500000	0.107000   
402.000000	0.211000   
402.500000	0.147000   
403.000000	0.101000   
403.500000	0.122000   
404.000000	0.092000   
404.500000	0.095000   
405.000000	0.141000   
405.500000	0.177000   
406.000000	0.092000   
406.500000	0.044000   
407.000000	0.108000   
407.500000	0.115000   
408.000000	0.140000   
408.500000	0.193000   
409.000000	0.190000   
409.500000	0.169000   
410.000000	0.136000   
410.500000	0.115000   
411.000000	0.138000   
411.500000	0.162000   
412.000000	0.206000   
412.500000	0.183000   
413.000000	0.146000   
413.500000	0.157000   
414.000000	0.163000   
414.500000	0.189000   
415.000000	0.169000   
415.500000	0.144000   
416.000000	0.135000   
416.500000	0.158000   
417.000000	0.149000   
417.500000	0.266000   
418.000000	0.251000   
418.500000	0.203000   
419.000000	0.171000   
419.500000	0.162000   
420.000000	0.159000   
420.500000	0.223000   
421.000000	0.223000   
421.500000	0.169000   
422.000000	0.164000   
422.500000	0.204000   
423.000000	0.124000   
423.500000	0.175000   
424.000000	0.213000   
424.500000	0.131000   
425.000000	0.156000   
425.500000	0.188000   
426.000000	0.214000   
426.500000	0.201000   
427.000000	0.206000   
427.500000	0.190000   
428.000000	0.179000   
428.500000	0.238000   
429.000000	0.176000   
429.500000	0.108000   
430.000000	0.125000   
430.500000	0.163000   
431.000000	0.169000   
431.500000	0.126000   
432.000000	0.209000   
432.500000	0.215000   
433.000000	0.175000   
433.500000	0.194000   
434.000000	0.260000   
434.500000	0.207000   
435.000000	0.197000   
435.500000	0.197000   
436.000000	0.164000   
436.500000	0.239000   
437.000000	0.225000   
437.500000	0.179000   
438.000000	0.216000   
438.500000	0.277000   
439.000000	0.279000   
439.500000	0.268000   
440.000000	0.210000   
440.500000	0.321000   
441.000000	0.197000   
441.500000	0.205000   
442.000000	0.216000   
442.500000	0.280000   
443.000000	0.188000   
443.500000	0.241000   
444.000000	0.230000   
444.500000	0.290000   
445.000000	0.268000   
445.500000	0.222000   
446.000000	0.317000   
446.500000	0.308000   
447.000000	0.228000   
447.500000	0.283000   
448.000000	0.222000   
448.500000	0.345000   
449.000000	0.311000   
449.500000	0.360000   
450.000000	0.185000   
450.500000	0.341000   
451.000000	0.380000   
451.500000	0.378000   
452.000000	0.435000   
452.500000	0.385000   
453.000000	0.371000   
453.500000	0.384000   
454.000000	0.308000   
454.500000	0.359000   
455.000000	0.335000   
455.500000	0.418000   
456.000000	0.363000   
456.500000	0.356000   
457.000000	0.346000   
457.500000	0.440000   
458.000000	0.346000   
458.500000	0.409000   
459.000000	0.326000   
459.500000	0.380000   
460.000000	0.419000   
460.500000	0.371000   
461.000000	0.416000   
461.500000	0.413000   
462.000000	0.411000   
462.500000	0.507000   
463.000000	0.497000   
463.500000	0.515000   
464.000000	0.447000   
464.500000	0.447000   
465.000000	0.396000   
465.500000	0.409000   
466.000000	0.460000   
466.500000	0.398000   
467.000000	0.557000   
467.500000	0.505000   
468.000000	0.479000   
468.500000	0.434000   
469.000000	0.453000   
469.500000	0.505000   
470.000000	0.553000   
470.500000	0.533000   
471.000000	0.436000   
471.500000	0.482000   
472.000000	0.528000   
472.500000	0.552000   
473.000000	0.530000   
473.500000	0.513000   
474.000000	0.539000   
474.500000	0.599000   
475.000000	0.640000   
475.500000	0.720000   
476.000000	0.846000   
476.500000	0.901000   
477.000000	1.125000   
477.500000	1.293000   
478.000000	1.591000   
478.500000	2.327000   
479.000000	3.091000   
479.500000	3.782000   
480.000000	4.915000   
480.500000	6.202000   
481.000000	8.273999   
481.500000	10.493000  
482.000000	12.455000  
482.500000	15.879000  
483.000000	18.493000  
483.500000	22.580000  
484.000000	26.645000  
484.500000	32.463000  
485.000000	36.862000  
485.500000	42.332000  
486.000000	47.809000  
486.500000	54.917000  
487.000000	62.013000  
487.500000	68.433000  
488.000000	73.281000  
488.500000	82.611000  
489.000000	90.937000  
489.500000	97.245000  
490.000000	103.860000 
490.500000	111.716000 
491.000000	118.049000 
491.500000	126.643000 
492.000000	130.881000 
492.500000	137.270000 
493.000000	141.506000 
493.500000	145.221000 
494.000000	151.527000 
494.500000	150.455000 
495.000000	150.026000 
495.500000	149.830000 
496.000000	150.000000 
496.500000	146.233000 
497.000000	145.164000 
497.500000	139.653000 
498.000000	136.603000 
498.500000	132.321000 
499.000000	129.429000 
499.500000	119.028000 
500.000000	114.003000 
500.500000	108.257000 
501.000000	101.498000 
501.500000	94.123000  
502.000000	85.390000  
502.500000	78.462000  
503.000000	70.697999  
503.500000	65.849000  
504.000000	60.484000  
504.500000	53.306000  
505.000000	46.757000  
505.500000	40.817000  
506.000000	36.053000  
506.500000	31.053000  
507.000000	26.224000  
507.500000	22.540000  
508.000000	19.574000  
508.500000	16.769000  
509.000000	12.731000  
509.500000	11.023000  
510.000000	8.657999   
510.500000	7.419000   
511.000000	5.864000   
511.500000	4.905000   
512.000000	4.179000   
512.500000	3.589000   
513.000000	2.617000   
513.500000	2.265000   
514.000000	1.697000   
514.500000	1.669000   
515.000000	1.282000   
515.500000	1.228000   
516.000000	1.073000   
516.500000	0.878000   
517.000000	0.893000   
517.500000	0.865000   
518.000000	0.790000   
518.500000	0.891000   
519.000000	0.861000   
519.500000	0.859000   
520.000000	0.775000   
520.500000	0.716000   
521.000000	0.714000   
521.500000	0.680000   
522.000000	0.687000   
522.500000	0.699000   
523.000000	0.848000   
523.500000	0.652000   
524.000000	0.810000   
524.500000	0.751000   
525.000000	0.805000   
525.500000	0.683000   
526.000000	0.787000   
526.500000	0.968000   
527.000000	0.940999   
527.500000	1.053000   
528.000000	1.118000   
528.500000	1.248000   
529.000000	1.505000   
529.500000	1.587000   
530.000000	1.669000   
530.500000	1.933000   
531.000000	2.244000   
531.500000	2.325000   
532.000000	2.902000   
532.500000	2.907000   
533.000000	3.125000   
533.500000	3.236000   
534.000000	3.738000   
534.500000	3.802000   
535.000000	3.938000   
535.500000	4.263000   
536.000000	4.214000   
536.500000	4.666000   
537.000000	5.296000   
537.500000	5.551000   
538.000000	5.716000   
538.500000	5.922000   
539.000000	6.131000   
539.500000	6.117000   
540.000000	5.970000   
540.500000	6.006000   
541.000000	6.181000   
541.500000	6.243000   
542.000000	5.869000   
542.500000	5.825000   
543.000000	5.290000   
543.500000	5.352000   
544.000000	5.364000   
544.500000	5.160000   
545.000000	4.840000   
545.500000	4.742000   
546.000000	4.123000   
546.500000	4.248000   
547.000000	4.128000   
547.500000	3.846000   
548.000000	3.217000   
548.500000	3.258000   

