PE FL                   SPECTRUM    ASCII       PEDS        1.60        
  -1
0124DI~1.SP
19/01/24
10:59:34.00
19/01/24
10:59:34.00


548.500000
1









LS45
545.00
10.00
10.00
SCAN
1
16
100
100
0
600
0
1
0
1
7
ON
435 365 
0 0 0
#HDR
-1
-1
#GR
NM
INT 
0.00002384185791015625
0.0
230.000000
0.500000
638
8
71.980000
0.000000
#DATA
230.000000	0.016000  
230.500000	0.004000  
231.000000	0.012000  
231.500000	0.000000  
232.000000	0.004000  
232.500000	0.016000  
233.000000	0.012000  
233.500000	0.000000  
234.000000	0.000000  
234.500000	0.000000  
235.000000	0.000000  
235.500000	0.000000  
236.000000	0.001000  
236.500000	0.004000  
237.000000	0.012000  
237.500000	0.001000  
238.000000	0.000000  
238.500000	0.000000  
239.000000	0.004000  
239.500000	0.014000  
240.000000	0.008000  
240.500000	0.013000  
241.000000	0.000000  
241.500000	0.003000  
242.000000	0.011000  
242.500000	0.000000  
243.000000	0.000000  
243.500000	0.006000  
244.000000	0.026000  
244.500000	0.020000  
245.000000	0.005000  
245.500000	0.018000  
246.000000	0.000000  
246.500000	0.004000  
247.000000	0.018000  
247.500000	0.011000  
248.000000	0.006000  
248.500000	0.031000  
249.000000	0.039000  
249.500000	0.000000  
250.000000	0.007000  
250.500000	0.035000  
251.000000	0.033000  
251.500000	0.003000  
252.000000	0.015000  
252.500000	0.021000  
253.000000	0.031000  
253.500000	0.015000  
254.000000	0.060000  
254.500000	0.027000  
255.000000	0.007000  
255.500000	0.039000  
256.000000	0.081000  
256.500000	0.128000  
257.000000	0.129000  
257.500000	0.271000  
258.000000	0.263000  
258.500000	0.283000  
259.000000	0.363000  
259.500000	0.578000  
260.000000	0.632000  
260.500000	0.705000  
261.000000	0.666000  
261.500000	0.814999  
262.000000	0.999000  
262.500000	1.198000  
263.000000	1.472000  
263.500000	1.383000  
264.000000	1.640000  
264.500000	1.960000  
265.000000	1.876000  
265.500000	1.975000  
266.000000	2.125000  
266.500000	2.237000  
267.000000	2.341000  
267.500000	2.671000  
268.000000	2.773000  
268.500000	3.009000  
269.000000	2.943000  
269.500000	2.635000  
270.000000	2.816000  
270.500000	2.619000  
271.000000	2.983000  
271.500000	2.719000  
272.000000	2.750000  
272.500000	2.608000  
273.000000	2.451000  
273.500000	2.343000  
274.000000	2.065000  
274.500000	2.122000  
275.000000	1.928000  
275.500000	1.717000  
276.000000	1.561000  
276.500000	1.352000  
277.000000	1.178000  
277.500000	1.147000  
278.000000	0.982000  
278.500000	0.946000  
279.000000	0.716000  
279.500000	0.646000  
280.000000	0.523000  
280.500000	0.444000  
281.000000	0.237000  
281.500000	0.264000  
282.000000	0.164000  
282.500000	0.146000  
283.000000	0.126000  
283.500000	0.141000  
284.000000	0.174000  
284.500000	0.128000  
285.000000	0.135000  
285.500000	0.153000  
286.000000	0.235000  
286.500000	0.241000  
287.000000	0.267000  
287.500000	0.360000  
288.000000	0.340000  
288.500000	0.385000  
289.000000	0.365000  
289.500000	0.381000  
290.000000	0.528000  
290.500000	0.611000  
291.000000	0.642000  
291.500000	0.647000  
292.000000	0.690999  
292.500000	0.854000  
293.000000	0.829000  
293.500000	0.757000  
294.000000	0.853000  
294.500000	0.956000  
295.000000	0.960000  
295.500000	1.113000  
296.000000	0.962000  
296.500000	1.039000  
297.000000	1.275000  
297.500000	1.008000  
298.000000	1.002000  
298.500000	1.034000  
299.000000	1.113000  
299.500000	1.018000  
300.000000	1.127000  
300.500000	1.163000  
301.000000	0.912000  
301.500000	1.017000  
302.000000	0.770000  
302.500000	0.830000  
303.000000	0.828000  
303.500000	0.738000  
304.000000	0.707000  
304.500000	0.613000  
305.000000	0.582000  
305.500000	0.476000  
306.000000	0.468000  
306.500000	0.396000  
307.000000	0.341000  
307.500000	0.308000  
308.000000	0.294000  
308.500000	0.279000  
309.000000	0.209000  
309.500000	0.209000  
310.000000	0.174000  
310.500000	0.154000  
311.000000	0.142000  
311.500000	0.094000  
312.000000	0.082000  
312.500000	0.092000  
313.000000	0.106000  
313.500000	0.078000  
314.000000	0.084000  
314.500000	0.080000  
315.000000	0.094000  
315.500000	0.085999  
316.000000	0.082000  
316.500000	0.079000  
317.000000	0.070000  
317.500000	0.085000  
318.000000	0.096000  
318.500000	0.077000  
319.000000	0.059000  
319.500000	0.055000  
320.000000	0.047000  
320.500000	0.064000  
321.000000	0.063000  
321.500000	0.067000  
322.000000	0.083000  
322.500000	0.095000  
323.000000	0.022000  
323.500000	0.104000  
324.000000	0.100000  
324.500000	0.101000  
325.000000	0.057000  
325.500000	0.062000  
326.000000	0.095000  
326.500000	0.085999  
327.000000	0.096000  
327.500000	0.080000  
328.000000	0.077000  
328.500000	0.022000  
329.000000	0.074000  
329.500000	0.041000  
330.000000	0.081000  
330.500000	0.093000  
331.000000	0.076000  
331.500000	0.126000  
332.000000	0.091000  
332.500000	0.066000  
333.000000	0.063000  
333.500000	0.059000  
334.000000	0.068000  
334.500000	0.049000  
335.000000	0.071999  
335.500000	0.144000  
336.000000	0.068000  
336.500000	0.062000  
337.000000	0.054000  
337.500000	0.070999  
338.000000	0.063000  
338.500000	0.056000  
339.000000	0.071999  
339.500000	0.035000  
340.000000	0.048000  
340.500000	0.100000  
341.000000	0.111000  
341.500000	0.077000  
342.000000	0.066000  
342.500000	0.081000  
343.000000	0.071999  
343.500000	0.049000  
344.000000	0.090000  
344.500000	0.100000  
345.000000	0.034000  
345.500000	0.046000  
346.000000	0.070999  
346.500000	0.107000  
347.000000	0.071999  
347.500000	0.090000  
348.000000	0.077000  
348.500000	0.056000  
349.000000	0.052000  
349.500000	0.065000  
350.000000	0.076000  
350.500000	0.080000  
351.000000	0.070000  
351.500000	0.059000  
352.000000	0.060000  
352.500000	0.020000  
353.000000	0.100000  
353.500000	0.096000  
354.000000	0.082000  
354.500000	0.083000  
355.000000	0.087999  
355.500000	0.094000  
356.000000	0.096000  
356.500000	0.080000  
357.000000	0.045000  
357.500000	0.083000  
358.000000	0.049000  
358.500000	0.055000  
359.000000	0.075000  
359.500000	0.077000  
360.000000	0.084000  
360.500000	0.081000  
361.000000	0.047000  
361.500000	0.090000  
362.000000	0.051000  
362.500000	0.069000  
363.000000	0.085000  
363.500000	0.110000  
364.000000	0.028000  
364.500000	0.028000  
365.000000	0.032000  
365.500000	0.033000  
366.000000	0.040000  
366.500000	0.051000  
367.000000	0.023000  
367.500000	0.046000  
368.000000	0.041000  
368.500000	0.066000  
369.000000	0.058000  
369.500000	0.037000  
370.000000	0.083000  
370.500000	0.085000  
371.000000	0.047000  
371.500000	0.037000  
372.000000	0.058000  
372.500000	0.041000  
373.000000	0.058000  
373.500000	0.030000  
374.000000	0.032000  
374.500000	0.055000  
375.000000	0.065000  
375.500000	0.070000  
376.000000	0.077000  
376.500000	0.040000  
377.000000	0.076000  
377.500000	0.055000  
378.000000	0.049000  
378.500000	0.092000  
379.000000	0.070000  
379.500000	0.097000  
380.000000	0.060000  
380.500000	0.049000  
381.000000	0.073000  
381.500000	0.064000  
382.000000	0.044000  
382.500000	0.085000  
383.000000	0.065000  
383.500000	0.063000  
384.000000	0.029000  
384.500000	0.049000  
385.000000	0.045000  
385.500000	0.037000  
386.000000	0.061000  
386.500000	0.052000  
387.000000	0.084000  
387.500000	0.067000  
388.000000	0.066000  
388.500000	0.033000  
389.000000	0.042000  
389.500000	0.069000  
390.000000	0.069000  
390.500000	0.071999  
391.000000	0.034000  
391.500000	0.070999  
392.000000	0.054000  
392.500000	0.069000  
393.000000	0.040000  
393.500000	0.059000  
394.000000	0.064000  
394.500000	0.082000  
395.000000	0.025000  
395.500000	0.063000  
396.000000	0.085000  
396.500000	0.109000  
397.000000	0.062000  
397.500000	0.071999  
398.000000	0.083000  
398.500000	0.056000  
399.000000	0.076000  
399.500000	0.070999  
400.000000	0.109000  
400.500000	0.082000  
401.000000	0.103000  
401.500000	0.113000  
402.000000	0.181000  
402.500000	0.022000  
403.000000	0.047000  
403.500000	0.104000  
404.000000	0.107000  
404.500000	0.067000  
405.000000	0.076000  
405.500000	0.108000  
406.000000	0.098000  
406.500000	0.086999  
407.000000	0.070000  
407.500000	0.080000  
408.000000	0.076000  
408.500000	0.100000  
409.000000	0.154000  
409.500000	0.089000  
410.000000	0.070999  
410.500000	0.068000  
411.000000	0.089000  
411.500000	0.053000  
412.000000	0.070999  
412.500000	0.080000  
413.000000	0.073000  
413.500000	0.102000  
414.000000	0.086999  
414.500000	0.074000  
415.000000	0.079000  
415.500000	0.092000  
416.000000	0.070999  
416.500000	0.086999  
417.000000	0.096000  
417.500000	0.085999  
418.000000	0.064000  
418.500000	0.178000  
419.000000	0.032000  
419.500000	0.042000  
420.000000	0.077000  
420.500000	0.056000  
421.000000	0.050000  
421.500000	0.059000  
422.000000	0.050000  
422.500000	0.060000  
423.000000	0.085999  
423.500000	0.069000  
424.000000	0.074000  
424.500000	0.061000  
425.000000	0.064000  
425.500000	0.083000  
426.000000	0.108000  
426.500000	0.070000  
427.000000	0.026000  
427.500000	0.066000  
428.000000	0.070999  
428.500000	0.081000  
429.000000	0.070000  
429.500000	0.079000  
430.000000	0.086999  
430.500000	0.100000  
431.000000	0.077000  
431.500000	0.105000  
432.000000	0.070000  
432.500000	0.069000  
433.000000	0.040000  
433.500000	0.105000  
434.000000	0.100000  
434.500000	0.106000  
435.000000	0.061000  
435.500000	0.076000  
436.000000	0.085000  
436.500000	0.079000  
437.000000	0.064000  
437.500000	0.089000  
438.000000	0.094000  
438.500000	0.093000  
439.000000	0.081000  
439.500000	0.061000  
440.000000	0.056000  
440.500000	0.086999  
441.000000	0.094000  
441.500000	0.056000  
442.000000	0.085000  
442.500000	0.099000  
443.000000	0.086999  
443.500000	0.056000  
444.000000	0.047000  
444.500000	0.045000  
445.000000	0.106000  
445.500000	0.098000  
446.000000	0.096000  
446.500000	0.125000  
447.000000	0.117000  
447.500000	0.095000  
448.000000	0.142000  
448.500000	0.124000  
449.000000	0.082000  
449.500000	0.074000  
450.000000	0.083000  
450.500000	0.119000  
451.000000	0.132000  
451.500000	0.130000  
452.000000	0.114000  
452.500000	0.118000  
453.000000	0.143000  
453.500000	0.097000  
454.000000	0.075000  
454.500000	0.059000  
455.000000	0.137000  
455.500000	0.136000  
456.000000	0.114000  
456.500000	0.100000  
457.000000	0.098000  
457.500000	0.094000  
458.000000	0.103000  
458.500000	0.107000  
459.000000	0.176000  
459.500000	0.173000  
460.000000	0.100000  
460.500000	0.149000  
461.000000	0.074000  
461.500000	0.102000  
462.000000	0.081000  
462.500000	0.069000  
463.000000	0.085000  
463.500000	0.111000  
464.000000	0.147000  
464.500000	0.134000  
465.000000	0.126000  
465.500000	0.111000  
466.000000	0.155000  
466.500000	0.099000  
467.000000	0.135000  
467.500000	0.118000  
468.000000	0.121000  
468.500000	0.134000  
469.000000	0.109000  
469.500000	0.126000  
470.000000	0.099000  
470.500000	0.113000  
471.000000	0.154000  
471.500000	0.132000  
472.000000	0.149000  
472.500000	0.134000  
473.000000	0.125000  
473.500000	0.103000  
474.000000	0.128000  
474.500000	0.100000  
475.000000	0.076000  
475.500000	0.153000  
476.000000	0.114000  
476.500000	0.122000  
477.000000	0.137000  
477.500000	0.099000  
478.000000	0.094000  
478.500000	0.121000  
479.000000	0.134000  
479.500000	0.132000  
480.000000	0.144000  
480.500000	0.099000  
481.000000	0.096000  
481.500000	0.124000  
482.000000	0.203000  
482.500000	0.150000  
483.000000	0.175000  
483.500000	0.194000  
484.000000	0.164000  
484.500000	0.130000  
485.000000	0.115000  
485.500000	0.130000  
486.000000	0.113000  
486.500000	0.173000  
487.000000	0.204000  
487.500000	0.137000  
488.000000	0.158000  
488.500000	0.180000  
489.000000	0.171000  
489.500000	0.219000  
490.000000	0.150000  
490.500000	0.189000  
491.000000	0.138000  
491.500000	0.152000  
492.000000	0.136000  
492.500000	0.218000  
493.000000	0.187000  
493.500000	0.238000  
494.000000	0.184000  
494.500000	0.176000  
495.000000	0.179000  
495.500000	0.205000  
496.000000	0.130000  
496.500000	0.166000  
497.000000	0.217000  
497.500000	0.223000  
498.000000	0.185000  
498.500000	0.180000  
499.000000	0.159000  
499.500000	0.152000  
500.000000	0.161000  
500.500000	0.189000  
501.000000	0.197000  
501.500000	0.180000  
502.000000	0.151000  
502.500000	0.127000  
503.000000	0.206000  
503.500000	0.196000  
504.000000	0.138000  
504.500000	0.169000  
505.000000	0.220000  
505.500000	0.170000  
506.000000	0.163000  
506.500000	0.155000  
507.000000	0.132000  
507.500000	0.136000  
508.000000	0.197000  
508.500000	0.168000  
509.000000	0.175000  
509.500000	0.233000  
510.000000	0.206000  
510.500000	0.232000  
511.000000	0.327000  
511.500000	0.309000  
512.000000	0.222000  
512.500000	0.250000  
513.000000	0.248000  
513.500000	0.299000  
514.000000	0.206000  
514.500000	0.260000  
515.000000	0.312000  
515.500000	0.301000  
516.000000	0.279000  
516.500000	0.288000  
517.000000	0.240000  
517.500000	0.271000  
518.000000	0.280000  
518.500000	0.335000  
519.000000	0.280000  
519.500000	0.352000  
520.000000	0.316000  
520.500000	0.372000  
521.000000	0.378000  
521.500000	0.494000  
522.000000	0.430000  
522.500000	0.565999  
523.000000	0.642000  
523.500000	0.712000  
524.000000	0.998000  
524.500000	1.250000  
525.000000	1.705000  
525.500000	2.238000  
526.000000	3.037000  
526.500000	4.036000  
527.000000	4.621000  
527.500000	5.436000  
528.000000	6.851000  
528.500000	8.651999  
529.000000	9.805000  
529.500000	11.649000 
530.000000	14.052000 
530.500000	16.312000 
531.000000	19.424000 
531.500000	22.085000 
532.000000	24.314000 
532.500000	28.808000 
533.000000	32.489000 
533.500000	35.418000 
534.000000	39.029000 
534.500000	42.604000 
535.000000	45.769000 
535.500000	50.808000 
536.000000	53.111000 
536.500000	56.712000 
537.000000	57.604000 
537.500000	61.835000 
538.000000	65.015000 
538.500000	66.932000 
539.000000	67.508000 
539.500000	70.174000 
540.000000	71.669000 
540.500000	71.412000 
541.000000	71.980000 
541.500000	70.450999 
542.000000	69.167000 
542.500000	67.390000 
543.000000	66.558000 
543.500000	65.209000 
544.000000	62.696000 
544.500000	60.375000 
545.000000	57.313000 
545.500000	52.373000 
546.000000	50.523000 
546.500000	45.570000 
547.000000	43.125000 
547.500000	39.239000 
548.000000	34.864000 
548.500000	31.597000 

