PE FL                   SPECTRUM    ASCII       PEDS        1.60        
  -1
01740A~1.SP
19/01/24
10:51:14.00
19/01/24
10:51:14.00


548.500000
1









LS45
490.00
10.00
10.00
SCAN
1
16
100
100
0
600
0
1
0
1
7
ON
435 365 
0 0 0
#HDR
-1
-1
#GR
NM
INT 
0.00002384185791015625
0.0
230.000000
0.500000
638
8
165.871000
0.027000
#DATA
230.000000	0.110000   
230.500000	0.131000   
231.000000	0.114000   
231.500000	0.139000   
232.000000	0.207000   
232.500000	0.250000   
233.000000	0.323000   
233.500000	0.289000   
234.000000	0.339000   
234.500000	0.409000   
235.000000	0.485000   
235.500000	0.532000   
236.000000	0.647000   
236.500000	0.646000   
237.000000	0.761000   
237.500000	0.742000   
238.000000	0.815999   
238.500000	0.979000   
239.000000	1.005000   
239.500000	1.141000   
240.000000	0.997000   
240.500000	0.891000   
241.000000	1.040000   
241.500000	1.040000   
242.000000	1.127000   
242.500000	1.332000   
243.000000	1.423000   
243.500000	1.216000   
244.000000	1.090000   
244.500000	1.106000   
245.000000	1.160000   
245.500000	1.043000   
246.000000	0.981000   
246.500000	1.000000   
247.000000	0.979000   
247.500000	0.928000   
248.000000	0.922000   
248.500000	0.872000   
249.000000	0.727000   
249.500000	0.613000   
250.000000	0.648000   
250.500000	0.526000   
251.000000	0.469000   
251.500000	0.486000   
252.000000	0.491000   
252.500000	0.463000   
253.000000	0.402000   
253.500000	0.332000   
254.000000	0.324000   
254.500000	0.321000   
255.000000	0.293000   
255.500000	0.370000   
256.000000	0.421000   
256.500000	0.452000   
257.000000	0.510000   
257.500000	0.440000   
258.000000	0.524000   
258.500000	0.635000   
259.000000	0.551000   
259.500000	0.670000   
260.000000	0.703000   
260.500000	0.755000   
261.000000	0.853000   
261.500000	0.889000   
262.000000	0.858000   
262.500000	0.911000   
263.000000	0.907000   
263.500000	0.948000   
264.000000	0.948000   
264.500000	1.061000   
265.000000	0.950000   
265.500000	0.959000   
266.000000	0.960000   
266.500000	0.953000   
267.000000	0.953000   
267.500000	0.892000   
268.000000	0.801000   
268.500000	0.796000   
269.000000	0.713000   
269.500000	0.763000   
270.000000	0.736000   
270.500000	0.666000   
271.000000	0.695000   
271.500000	0.593000   
272.000000	0.588000   
272.500000	0.509000   
273.000000	0.429000   
273.500000	0.349000   
274.000000	0.319000   
274.500000	0.256000   
275.000000	0.221000   
275.500000	0.192000   
276.000000	0.125000   
276.500000	0.149000   
277.000000	0.156000   
277.500000	0.111000   
278.000000	0.073000   
278.500000	0.076000   
279.000000	0.085999   
279.500000	0.068000   
280.000000	0.078000   
280.500000	0.090000   
281.000000	0.075000   
281.500000	0.049000   
282.000000	0.061000   
282.500000	0.052000   
283.000000	0.031000   
283.500000	0.065000   
284.000000	0.059000   
284.500000	0.042000   
285.000000	0.061000   
285.500000	0.045000   
286.000000	0.070000   
286.500000	0.048000   
287.000000	0.035000   
287.500000	0.050000   
288.000000	0.070000   
288.500000	0.053000   
289.000000	0.064000   
289.500000	0.060000   
290.000000	0.079000   
290.500000	0.043000   
291.000000	0.036000   
291.500000	0.048000   
292.000000	0.086999   
292.500000	0.063000   
293.000000	0.061000   
293.500000	0.053000   
294.000000	0.065000   
294.500000	0.070000   
295.000000	0.082000   
295.500000	0.063000   
296.000000	0.064000   
296.500000	0.087999   
297.000000	0.069000   
297.500000	0.097000   
298.000000	0.063000   
298.500000	0.052000   
299.000000	0.047000   
299.500000	0.070999   
300.000000	0.096000   
300.500000	0.067000   
301.000000	0.043000   
301.500000	0.047000   
302.000000	0.071999   
302.500000	0.054000   
303.000000	0.057000   
303.500000	0.060000   
304.000000	0.077000   
304.500000	0.035000   
305.000000	0.027000   
305.500000	0.087999   
306.000000	0.083000   
306.500000	0.059000   
307.000000	0.040000   
307.500000	0.073000   
308.000000	0.035000   
308.500000	0.048000   
309.000000	0.070999   
309.500000	0.080000   
310.000000	0.054000   
310.500000	0.062000   
311.000000	0.085000   
311.500000	0.056000   
312.000000	0.064000   
312.500000	0.066000   
313.000000	0.099000   
313.500000	0.075000   
314.000000	0.067000   
314.500000	0.062000   
315.000000	0.057000   
315.500000	0.074000   
316.000000	0.078000   
316.500000	0.070000   
317.000000	0.093000   
317.500000	0.101000   
318.000000	0.059000   
318.500000	0.073000   
319.000000	0.065000   
319.500000	0.064000   
320.000000	0.085000   
320.500000	0.124000   
321.000000	0.109000   
321.500000	0.058000   
322.000000	0.075000   
322.500000	0.091000   
323.000000	0.106000   
323.500000	0.106000   
324.000000	0.083000   
324.500000	0.070999   
325.000000	0.056000   
325.500000	0.056000   
326.000000	0.046000   
326.500000	0.060000   
327.000000	0.076000   
327.500000	0.092000   
328.000000	0.063000   
328.500000	0.071999   
329.000000	0.102000   
329.500000	0.075000   
330.000000	0.062000   
330.500000	0.061000   
331.000000	0.091000   
331.500000	0.077000   
332.000000	0.065000   
332.500000	0.087999   
333.000000	0.090000   
333.500000	0.096000   
334.000000	0.085000   
334.500000	0.078000   
335.000000	0.105000   
335.500000	0.085000   
336.000000	0.122000   
336.500000	0.086999   
337.000000	0.085000   
337.500000	0.120000   
338.000000	0.111000   
338.500000	0.092000   
339.000000	0.099000   
339.500000	0.095000   
340.000000	0.085999   
340.500000	0.080000   
341.000000	0.085999   
341.500000	0.075000   
342.000000	0.101000   
342.500000	0.075000   
343.000000	0.098000   
343.500000	0.090000   
344.000000	0.096000   
344.500000	0.101000   
345.000000	0.078000   
345.500000	0.111000   
346.000000	0.079000   
346.500000	0.085000   
347.000000	0.081000   
347.500000	0.090000   
348.000000	0.054000   
348.500000	0.074000   
349.000000	0.086999   
349.500000	0.083000   
350.000000	0.113000   
350.500000	0.170000   
351.000000	0.178000   
351.500000	0.085000   
352.000000	0.116000   
352.500000	0.120000   
353.000000	0.082000   
353.500000	0.069000   
354.000000	0.123000   
354.500000	0.080000   
355.000000	0.094000   
355.500000	0.070000   
356.000000	0.068000   
356.500000	0.111000   
357.000000	0.068000   
357.500000	0.080000   
358.000000	0.105000   
358.500000	0.116000   
359.000000	0.103000   
359.500000	0.125000   
360.000000	0.111000   
360.500000	0.106000   
361.000000	0.106000   
361.500000	0.068000   
362.000000	0.098000   
362.500000	0.097000   
363.000000	0.087999   
363.500000	0.085999   
364.000000	0.090000   
364.500000	0.119000   
365.000000	0.119000   
365.500000	0.111000   
366.000000	0.107000   
366.500000	0.076000   
367.000000	0.070000   
367.500000	0.085000   
368.000000	0.078000   
368.500000	0.096000   
369.000000	0.091000   
369.500000	0.137000   
370.000000	0.112000   
370.500000	0.104000   
371.000000	0.106000   
371.500000	0.128000   
372.000000	0.171000   
372.500000	0.077000   
373.000000	0.075000   
373.500000	0.087999   
374.000000	0.098000   
374.500000	0.127000   
375.000000	0.126000   
375.500000	0.117000   
376.000000	0.143000   
376.500000	0.099000   
377.000000	0.074000   
377.500000	0.102000   
378.000000	0.152000   
378.500000	0.115000   
379.000000	0.090000   
379.500000	0.070999   
380.000000	0.103000   
380.500000	0.130000   
381.000000	0.149000   
381.500000	0.106000   
382.000000	0.068000   
382.500000	0.077000   
383.000000	0.074000   
383.500000	0.099000   
384.000000	0.104000   
384.500000	0.080000   
385.000000	0.124000   
385.500000	0.085999   
386.000000	0.118000   
386.500000	0.105000   
387.000000	0.102000   
387.500000	0.104000   
388.000000	0.105000   
388.500000	0.107000   
389.000000	0.120000   
389.500000	0.097000   
390.000000	0.116000   
390.500000	0.091000   
391.000000	0.107000   
391.500000	0.133000   
392.000000	0.112000   
392.500000	0.105000   
393.000000	0.095000   
393.500000	0.117000   
394.000000	0.123000   
394.500000	0.116000   
395.000000	0.091000   
395.500000	0.107000   
396.000000	0.129000   
396.500000	0.130000   
397.000000	0.114000   
397.500000	0.123000   
398.000000	0.119000   
398.500000	0.141000   
399.000000	0.155000   
399.500000	0.122000   
400.000000	0.137000   
400.500000	0.121000   
401.000000	0.124000   
401.500000	0.142000   
402.000000	0.092000   
402.500000	0.159000   
403.000000	0.107000   
403.500000	0.115000   
404.000000	0.157000   
404.500000	0.122000   
405.000000	0.074000   
405.500000	0.109000   
406.000000	0.115000   
406.500000	0.100000   
407.000000	0.153000   
407.500000	0.196000   
408.000000	0.095000   
408.500000	0.138000   
409.000000	0.105000   
409.500000	0.140000   
410.000000	0.110000   
410.500000	0.132000   
411.000000	0.085999   
411.500000	0.124000   
412.000000	0.126000   
412.500000	0.127000   
413.000000	0.150000   
413.500000	0.108000   
414.000000	0.111000   
414.500000	0.142000   
415.000000	0.128000   
415.500000	0.114000   
416.000000	0.144000   
416.500000	0.131000   
417.000000	0.119000   
417.500000	0.151000   
418.000000	0.183000   
418.500000	0.183000   
419.000000	0.180000   
419.500000	0.135000   
420.000000	0.108000   
420.500000	0.141000   
421.000000	0.151000   
421.500000	0.133000   
422.000000	0.144000   
422.500000	0.144000   
423.000000	0.181000   
423.500000	0.212000   
424.000000	0.191000   
424.500000	0.089000   
425.000000	0.179000   
425.500000	0.172000   
426.000000	0.173000   
426.500000	0.143000   
427.000000	0.175000   
427.500000	0.204000   
428.000000	0.163000   
428.500000	0.110000   
429.000000	0.159000   
429.500000	0.149000   
430.000000	0.116000   
430.500000	0.146000   
431.000000	0.131000   
431.500000	0.163000   
432.000000	0.176000   
432.500000	0.236000   
433.000000	0.207000   
433.500000	0.180000   
434.000000	0.214000   
434.500000	0.205000   
435.000000	0.216000   
435.500000	0.180000   
436.000000	0.177000   
436.500000	0.167000   
437.000000	0.162000   
437.500000	0.261000   
438.000000	0.239000   
438.500000	0.232000   
439.000000	0.184000   
439.500000	0.226000   
440.000000	0.219000   
440.500000	0.269000   
441.000000	0.222000   
441.500000	0.254000   
442.000000	0.269000   
442.500000	0.238000   
443.000000	0.208000   
443.500000	0.197000   
444.000000	0.286000   
444.500000	0.317000   
445.000000	0.306000   
445.500000	0.325000   
446.000000	0.294000   
446.500000	0.295000   
447.000000	0.286000   
447.500000	0.344000   
448.000000	0.303000   
448.500000	0.362000   
449.000000	0.406000   
449.500000	0.313000   
450.000000	0.289000   
450.500000	0.379000   
451.000000	0.288000   
451.500000	0.311000   
452.000000	0.422000   
452.500000	0.320000   
453.000000	0.325000   
453.500000	0.386000   
454.000000	0.413000   
454.500000	0.365000   
455.000000	0.440000   
455.500000	0.445000   
456.000000	0.427000   
456.500000	0.413000   
457.000000	0.446000   
457.500000	0.453000   
458.000000	0.499000   
458.500000	0.469000   
459.000000	0.558000   
459.500000	0.497000   
460.000000	0.453000   
460.500000	0.464000   
461.000000	0.423000   
461.500000	0.555000   
462.000000	0.490000   
462.500000	0.422000   
463.000000	0.486000   
463.500000	0.516000   
464.000000	0.563999   
464.500000	0.498000   
465.000000	0.599000   
465.500000	0.625000   
466.000000	0.662000   
466.500000	0.730000   
467.000000	0.842000   
467.500000	0.938999   
468.000000	1.334000   
468.500000	1.643000   
469.000000	2.047000   
469.500000	2.707000   
470.000000	3.901000   
470.500000	5.097000   
471.000000	7.111000   
471.500000	9.007999   
472.000000	11.732000  
472.500000	14.485000  
473.000000	18.822000  
473.500000	22.103000  
474.000000	27.573000  
474.500000	32.136000  
475.000000	37.956000  
475.500000	43.276000  
476.000000	51.248000  
476.500000	56.913000  
477.000000	63.463000  
477.500000	71.301000  
478.000000	79.327000  
478.500000	86.663000  
479.000000	96.078000  
479.500000	105.001000 
480.000000	113.018000 
480.500000	120.454000 
481.000000	128.699000 
481.500000	134.737000 
482.000000	142.716000 
482.500000	148.609000 
483.000000	151.756000 
483.500000	159.172000 
484.000000	161.670000 
484.500000	162.570000 
485.000000	164.567000 
485.500000	165.871000 
486.000000	165.037000 
486.500000	160.487000 
487.000000	158.688000 
487.500000	155.501000 
488.000000	154.022000 
488.500000	147.423000 
489.000000	140.014000 
489.500000	134.576000 
490.000000	127.731000 
490.500000	118.374000 
491.000000	113.098000 
491.500000	103.217000 
492.000000	97.423000  
492.500000	86.569000  
493.000000	79.937000  
493.500000	70.010000  
494.000000	63.090000  
494.500000	54.785000  
495.000000	48.768000  
495.500000	43.166000  
496.000000	38.255000  
496.500000	32.738000  
497.000000	27.660000  
497.500000	23.823000  
498.000000	20.831000  
498.500000	17.146000  
499.000000	14.418000  
499.500000	11.521000  
500.000000	10.070000  
500.500000	8.387000   
501.000000	6.496000   
501.500000	5.101000   
502.000000	4.197000   
502.500000	3.595000   
503.000000	2.922000   
503.500000	2.281000   
504.000000	1.904000   
504.500000	1.561000   
505.000000	1.318000   
505.500000	1.199000   
506.000000	1.086000   
506.500000	1.009000   
507.000000	1.039000   
507.500000	0.873000   
508.000000	0.738000   
508.500000	0.904000   
509.000000	0.758000   
509.500000	0.698000   
510.000000	0.619000   
510.500000	0.625000   
511.000000	0.655000   
511.500000	0.698000   
512.000000	0.662000   
512.500000	0.633000   
513.000000	0.711000   
513.500000	0.682000   
514.000000	0.694000   
514.500000	0.752000   
515.000000	0.819000   
515.500000	0.879000   
516.000000	0.877000   
516.500000	0.860000   
517.000000	0.990000   
517.500000	1.226000   
518.000000	1.061000   
518.500000	1.165000   
519.000000	1.239000   
519.500000	1.409000   
520.000000	1.557000   
520.500000	1.619000   
521.000000	1.766000   
521.500000	1.820000   
522.000000	2.144000   
522.500000	2.274000   
523.000000	2.267000   
523.500000	2.453000   
524.000000	2.517000   
524.500000	2.677000   
525.000000	2.896000   
525.500000	3.047000   
526.000000	3.163000   
526.500000	3.203000   
527.000000	3.323000   
527.500000	3.418000   
528.000000	3.475000   
528.500000	3.662000   
529.000000	3.635000   
529.500000	3.619000   
530.000000	3.720000   
530.500000	3.805000   
531.000000	3.851000   
531.500000	3.710000   
532.000000	3.576000   
532.500000	3.366000   
533.000000	3.323000   
533.500000	3.420000   
534.000000	3.055000   
534.500000	2.951000   
535.000000	3.000000   
535.500000	3.176000   
536.000000	2.693000   
536.500000	2.618000   
537.000000	2.521000   
537.500000	2.333000   
538.000000	2.064000   
538.500000	1.957000   
539.000000	1.965000   
539.500000	1.664000   
540.000000	1.652000   
540.500000	1.451000   
541.000000	1.488000   
541.500000	1.441000   
542.000000	1.302000   
542.500000	1.127000   
543.000000	1.061000   
543.500000	0.889000   
544.000000	0.829000   
544.500000	0.721000   
545.000000	0.706000   
545.500000	0.534000   
546.000000	0.585000   
546.500000	0.529000   
547.000000	0.424000   
547.500000	0.360000   
548.000000	0.364000   
548.500000	0.351000   

