PE FL                   SPECTRUM    ASCII       PEDS        1.60        
  -1
0124DI~3.SP
19/01/24
10:41:27.00
19/01/24
10:41:27.00


548.500000
1









LS45
425.00
10.00
10.00
SCAN
1
16
100
100
0
600
0
1
0
1
7
ON
435 365 
0 0 0
#HDR
-1
-1
#GR
NM
INT 
0.00002384185791015625
0.0
230.000000
0.500000
638
8
303.669000
0.024000
#DATA
230.000000	0.081000   
230.500000	0.063000   
231.000000	0.091000   
231.500000	0.085999   
232.000000	0.049000   
232.500000	0.058000   
233.000000	0.089000   
233.500000	0.070999   
234.000000	0.077000   
234.500000	0.104000   
235.000000	0.067000   
235.500000	0.044000   
236.000000	0.085999   
236.500000	0.055000   
237.000000	0.070999   
237.500000	0.053000   
238.000000	0.052000   
238.500000	0.070999   
239.000000	0.052000   
239.500000	0.039000   
240.000000	0.035000   
240.500000	0.039000   
241.000000	0.079000   
241.500000	0.054000   
242.000000	0.051000   
242.500000	0.075000   
243.000000	0.081000   
243.500000	0.042000   
244.000000	0.090000   
244.500000	0.090000   
245.000000	0.118000   
245.500000	0.124000   
246.000000	0.056000   
246.500000	0.049000   
247.000000	0.026000   
247.500000	0.053000   
248.000000	0.027000   
248.500000	0.045000   
249.000000	0.035000   
249.500000	0.066000   
250.000000	0.093000   
250.500000	0.032000   
251.000000	0.054000   
251.500000	0.076000   
252.000000	0.050000   
252.500000	0.035000   
253.000000	0.041000   
253.500000	0.025000   
254.000000	0.036000   
254.500000	0.033000   
255.000000	0.050000   
255.500000	0.046000   
256.000000	0.051000   
256.500000	0.037000   
257.000000	0.028000   
257.500000	0.026000   
258.000000	0.024000   
258.500000	0.046000   
259.000000	0.102000   
259.500000	0.054000   
260.000000	0.054000   
260.500000	0.070000   
261.000000	0.071999   
261.500000	0.058000   
262.000000	0.084000   
262.500000	0.041000   
263.000000	0.052000   
263.500000	0.080000   
264.000000	0.093000   
264.500000	0.085000   
265.000000	0.075000   
265.500000	0.066000   
266.000000	0.056000   
266.500000	0.069000   
267.000000	0.098000   
267.500000	0.107000   
268.000000	0.080000   
268.500000	0.078000   
269.000000	0.071999   
269.500000	0.068000   
270.000000	0.046000   
270.500000	0.059000   
271.000000	0.065000   
271.500000	0.066000   
272.000000	0.102000   
272.500000	0.083000   
273.000000	0.053000   
273.500000	0.050000   
274.000000	0.073000   
274.500000	0.060000   
275.000000	0.068000   
275.500000	0.089000   
276.000000	0.067000   
276.500000	0.125000   
277.000000	0.070999   
277.500000	0.061000   
278.000000	0.102000   
278.500000	0.077000   
279.000000	0.112000   
279.500000	0.127000   
280.000000	0.073000   
280.500000	0.067000   
281.000000	0.081000   
281.500000	0.063000   
282.000000	0.070000   
282.500000	0.079000   
283.000000	0.121000   
283.500000	0.089000   
284.000000	0.066000   
284.500000	0.123000   
285.000000	0.112000   
285.500000	0.133000   
286.000000	0.084000   
286.500000	0.068000   
287.000000	0.120000   
287.500000	0.097000   
288.000000	0.097000   
288.500000	0.097000   
289.000000	0.094000   
289.500000	0.085000   
290.000000	0.097000   
290.500000	0.097000   
291.000000	0.098000   
291.500000	0.070000   
292.000000	0.099000   
292.500000	0.136000   
293.000000	0.100000   
293.500000	0.105000   
294.000000	0.068000   
294.500000	0.142000   
295.000000	0.146000   
295.500000	0.133000   
296.000000	0.085999   
296.500000	0.109000   
297.000000	0.120000   
297.500000	0.094000   
298.000000	0.070999   
298.500000	0.130000   
299.000000	0.135000   
299.500000	0.076000   
300.000000	0.093000   
300.500000	0.097000   
301.000000	0.071999   
301.500000	0.145000   
302.000000	0.146000   
302.500000	0.086999   
303.000000	0.091000   
303.500000	0.120000   
304.000000	0.104000   
304.500000	0.160000   
305.000000	0.134000   
305.500000	0.149000   
306.000000	0.080000   
306.500000	0.133000   
307.000000	0.157000   
307.500000	0.066000   
308.000000	0.123000   
308.500000	0.105000   
309.000000	0.145000   
309.500000	0.106000   
310.000000	0.176000   
310.500000	0.170000   
311.000000	0.138000   
311.500000	0.175000   
312.000000	0.154000   
312.500000	0.117000   
313.000000	0.162000   
313.500000	0.118000   
314.000000	0.105000   
314.500000	0.089000   
315.000000	0.120000   
315.500000	0.149000   
316.000000	0.112000   
316.500000	0.135000   
317.000000	0.138000   
317.500000	0.173000   
318.000000	0.150000   
318.500000	0.150000   
319.000000	0.146000   
319.500000	0.113000   
320.000000	0.135000   
320.500000	0.182000   
321.000000	0.172000   
321.500000	0.151000   
322.000000	0.184000   
322.500000	0.146000   
323.000000	0.167000   
323.500000	0.124000   
324.000000	0.120000   
324.500000	0.185000   
325.000000	0.149000   
325.500000	0.237000   
326.000000	0.140000   
326.500000	0.100000   
327.000000	0.163000   
327.500000	0.143000   
328.000000	0.150000   
328.500000	0.173000   
329.000000	0.157000   
329.500000	0.255000   
330.000000	0.183000   
330.500000	0.173000   
331.000000	0.191000   
331.500000	0.211000   
332.000000	0.220000   
332.500000	0.190000   
333.000000	0.171000   
333.500000	0.177000   
334.000000	0.215000   
334.500000	0.205000   
335.000000	0.145000   
335.500000	0.145000   
336.000000	0.115000   
336.500000	0.196000   
337.000000	0.195000   
337.500000	0.225000   
338.000000	0.197000   
338.500000	0.223000   
339.000000	0.182000   
339.500000	0.201000   
340.000000	0.168000   
340.500000	0.189000   
341.000000	0.200000   
341.500000	0.167000   
342.000000	0.162000   
342.500000	0.288000   
343.000000	0.279000   
343.500000	0.189000   
344.000000	0.192000   
344.500000	0.178000   
345.000000	0.184000   
345.500000	0.196000   
346.000000	0.222000   
346.500000	0.169000   
347.000000	0.239000   
347.500000	0.138000   
348.000000	0.237000   
348.500000	0.216000   
349.000000	0.187000   
349.500000	0.222000   
350.000000	0.156000   
350.500000	0.253000   
351.000000	0.171000   
351.500000	0.178000   
352.000000	0.236000   
352.500000	0.293000   
353.000000	0.189000   
353.500000	0.160000   
354.000000	0.201000   
354.500000	0.256000   
355.000000	0.204000   
355.500000	0.189000   
356.000000	0.246000   
356.500000	0.238000   
357.000000	0.194000   
357.500000	0.175000   
358.000000	0.211000   
358.500000	0.228000   
359.000000	0.273000   
359.500000	0.254000   
360.000000	0.262000   
360.500000	0.283000   
361.000000	0.346000   
361.500000	0.272000   
362.000000	0.234000   
362.500000	0.236000   
363.000000	0.264000   
363.500000	0.294000   
364.000000	0.292000   
364.500000	0.273000   
365.000000	0.264000   
365.500000	0.345000   
366.000000	0.292000   
366.500000	0.318000   
367.000000	0.287000   
367.500000	0.298000   
368.000000	0.251000   
368.500000	0.299000   
369.000000	0.232000   
369.500000	0.276000   
370.000000	0.266000   
370.500000	0.254000   
371.000000	0.303000   
371.500000	0.324000   
372.000000	0.324000   
372.500000	0.352000   
373.000000	0.413000   
373.500000	0.316000   
374.000000	0.411000   
374.500000	0.363000   
375.000000	0.340000   
375.500000	0.432000   
376.000000	0.419000   
376.500000	0.431000   
377.000000	0.425000   
377.500000	0.473000   
378.000000	0.406000   
378.500000	0.501000   
379.000000	0.550000   
379.500000	0.624000   
380.000000	0.547000   
380.500000	0.531000   
381.000000	0.423000   
381.500000	0.458000   
382.000000	0.414000   
382.500000	0.499000   
383.000000	0.527000   
383.500000	0.573000   
384.000000	0.528000   
384.500000	0.595000   
385.000000	0.644000   
385.500000	0.636000   
386.000000	0.579000   
386.500000	0.516000   
387.000000	0.524000   
387.500000	0.511000   
388.000000	0.526000   
388.500000	0.541000   
389.000000	0.714000   
389.500000	0.588000   
390.000000	0.558000   
390.500000	0.615000   
391.000000	0.732000   
391.500000	0.699000   
392.000000	0.687999   
392.500000	0.730000   
393.000000	0.769000   
393.500000	0.666000   
394.000000	0.764000   
394.500000	0.759000   
395.000000	0.894000   
395.500000	0.764000   
396.000000	0.762000   
396.500000	0.752000   
397.000000	0.848000   
397.500000	0.792000   
398.000000	0.792000   
398.500000	0.793000   
399.000000	1.018000   
399.500000	0.927000   
400.000000	0.932000   
400.500000	1.040000   
401.000000	1.270000   
401.500000	1.282000   
402.000000	1.514000   
402.500000	1.934000   
403.000000	2.304000   
403.500000	3.008000   
404.000000	3.842000   
404.500000	4.499000   
405.000000	6.509000   
405.500000	8.243000   
406.000000	10.631000  
406.500000	12.297000  
407.000000	16.287000  
407.500000	20.670000  
408.000000	25.802000  
408.500000	31.848000  
409.000000	39.228000  
409.500000	45.780000  
410.000000	54.463000  
410.500000	63.941000  
411.000000	73.503000  
411.500000	84.825999  
412.000000	94.974000  
412.500000	110.566000 
413.000000	125.030000 
413.500000	140.043000 
414.000000	152.711000 
414.500000	168.455000 
415.000000	180.059000 
415.500000	198.455000 
416.000000	215.146000 
416.500000	230.105000 
417.000000	239.138000 
417.500000	254.266000 
418.000000	264.477000 
418.500000	277.414000 
419.000000	286.147000 
419.500000	294.956000 
420.000000	297.091000 
420.500000	302.911000 
421.000000	303.669000 
421.500000	303.220000 
422.000000	300.630000 
422.500000	298.611000 
423.000000	292.796000 
423.500000	285.195000 
424.000000	276.257000 
424.500000	264.678000 
425.000000	250.262000 
425.500000	235.081000 
426.000000	221.700000 
426.500000	209.041000 
427.000000	194.098000 
427.500000	179.388000 
428.000000	164.783000 
428.500000	149.412000 
429.000000	135.357000 
429.500000	118.527000 
430.000000	106.156000 
430.500000	94.717000  
431.000000	80.635000  
431.500000	68.860000  
432.000000	58.367000  
432.500000	52.422000  
433.000000	42.081000  
433.500000	35.940000  
434.000000	29.033000  
434.500000	23.190000  
435.000000	19.069000  
435.500000	16.761000  
436.000000	12.670000  
436.500000	10.337000  
437.000000	7.752000   
437.500000	6.751000   
438.000000	5.423000   
438.500000	4.224000   
439.000000	3.423000   
439.500000	3.282000   
440.000000	2.866000   
440.500000	2.317000   
441.000000	2.126000   
441.500000	1.935000   
442.000000	1.822000   
442.500000	1.960000   
443.000000	2.062000   
443.500000	1.831000   
444.000000	2.147000   
444.500000	2.104000   
445.000000	2.065000   
445.500000	1.993000   
446.000000	1.783000   
446.500000	1.858000   
447.000000	2.140000   
447.500000	2.275000   
448.000000	2.018000   
448.500000	2.136000   
449.000000	2.235000   
449.500000	2.242000   
450.000000	2.351000   
450.500000	2.280000   
451.000000	2.218000   
451.500000	2.272000   
452.000000	2.191000   
452.500000	2.303000   
453.000000	2.233000   
453.500000	2.139000   
454.000000	2.192000   
454.500000	2.273000   
455.000000	2.293000   
455.500000	2.137000   
456.000000	2.205000   
456.500000	2.183000   
457.000000	2.219000   
457.500000	2.042000   
458.000000	2.142000   
458.500000	1.961000   
459.000000	1.804000   
459.500000	2.017000   
460.000000	1.760000   
460.500000	1.684000   
461.000000	1.620000   
461.500000	1.689000   
462.000000	1.647000   
462.500000	1.572000   
463.000000	1.449000   
463.500000	1.330000   
464.000000	1.267000   
464.500000	1.067000   
465.000000	1.102000   
465.500000	1.025000   
466.000000	1.182000   
466.500000	1.222000   
467.000000	1.104000   
467.500000	0.903000   
468.000000	0.973000   
468.500000	1.134000   
469.000000	0.910000   
469.500000	0.978000   
470.000000	1.152000   
470.500000	0.944000   
471.000000	1.015000   
471.500000	1.176000   
472.000000	1.208000   
472.500000	1.530000   
473.000000	1.454000   
473.500000	1.526000   
474.000000	1.451000   
474.500000	1.865000   
475.000000	2.064000   
475.500000	2.240000   
476.000000	2.388000   
476.500000	2.761000   
477.000000	3.186000   
477.500000	3.327000   
478.000000	3.669000   
478.500000	3.945000   
479.000000	4.253000   
479.500000	4.576000   
480.000000	4.889000   
480.500000	5.425000   
481.000000	5.933000   
481.500000	5.923000   
482.000000	6.378000   
482.500000	7.179000   
483.000000	7.452000   
483.500000	8.074999   
484.000000	8.417000   
484.500000	9.079000   
485.000000	9.731999   
485.500000	9.705000   
486.000000	10.321000  
486.500000	10.462000  
487.000000	11.343000  
487.500000	11.698000  
488.000000	11.801000  
488.500000	12.089000  
489.000000	11.982000  
489.500000	12.038000  
490.000000	12.217000  
490.500000	12.331000  
491.000000	12.906000  
491.500000	13.415000  
492.000000	12.601000  
492.500000	12.736000  
493.000000	12.764000  
493.500000	12.026000  
494.000000	11.728000  
494.500000	11.873000  
495.000000	11.258000  
495.500000	10.868000  
496.000000	10.508000  
496.500000	9.941000   
497.000000	9.587999   
497.500000	9.436000   
498.000000	8.740000   
498.500000	8.560000   
499.000000	8.066000   
499.500000	7.242000   
500.000000	6.842000   
500.500000	6.762000   
501.000000	6.225000   
501.500000	5.651000   
502.000000	5.473000   
502.500000	5.083000   
503.000000	4.491000   
503.500000	4.381000   
504.000000	3.883000   
504.500000	3.405000   
505.000000	2.979000   
505.500000	2.983000   
506.000000	2.990000   
506.500000	2.612000   
507.000000	2.105000   
507.500000	2.019000   
508.000000	1.854000   
508.500000	1.507000   
509.000000	1.316000   
509.500000	1.218000   
510.000000	1.134000   
510.500000	0.895000   
511.000000	0.964000   
511.500000	0.868000   
512.000000	0.864000   
512.500000	0.668000   
513.000000	0.638000   
513.500000	0.578000   
514.000000	0.546000   
514.500000	0.532000   
515.000000	0.343000   
515.500000	0.434000   
516.000000	0.440000   
516.500000	0.466000   
517.000000	0.495000   
517.500000	0.392000   
518.000000	0.303000   
518.500000	0.370000   
519.000000	0.317000   
519.500000	0.282000   
520.000000	0.267000   
520.500000	0.308000   
521.000000	0.242000   
521.500000	0.237000   
522.000000	0.220000   
522.500000	0.223000   
523.000000	0.217000   
523.500000	0.269000   
524.000000	0.258000   
524.500000	0.223000   
525.000000	0.214000   
525.500000	0.262000   
526.000000	0.155000   
526.500000	0.171000   
527.000000	0.257000   
527.500000	0.201000   
528.000000	0.218000   
528.500000	0.171000   
529.000000	0.184000   
529.500000	0.194000   
530.000000	0.159000   
530.500000	0.160000   
531.000000	0.165000   
531.500000	0.137000   
532.000000	0.139000   
532.500000	0.160000   
533.000000	0.146000   
533.500000	0.136000   
534.000000	0.218000   
534.500000	0.163000   
535.000000	0.202000   
535.500000	0.102000   
536.000000	0.126000   
536.500000	0.169000   
537.000000	0.166000   
537.500000	0.155000   
538.000000	0.143000   
538.500000	0.112000   
539.000000	0.132000   
539.500000	0.196000   
540.000000	0.173000   
540.500000	0.162000   
541.000000	0.146000   
541.500000	0.120000   
542.000000	0.128000   
542.500000	0.139000   
543.000000	0.228000   
543.500000	0.211000   
544.000000	0.135000   
544.500000	0.103000   
545.000000	0.148000   
545.500000	0.117000   
546.000000	0.115000   
546.500000	0.104000   
547.000000	0.138000   
547.500000	0.125000   
548.000000	0.093000   
548.500000	0.157000   

