PE FL                   SPECTRUM    ASCII       PEDS        1.60        
  -1
01680E~1.SP
19/01/24
10:56:32.00
19/01/24
10:56:32.00


548.500000
1









LS45
525.00
10.00
10.00
SCAN
1
16
100
100
0
600
0
1
0
1
7
ON
435 365 
0 0 0
#HDR
-1
-1
#GR
NM
INT 
0.00002384185791015625
0.0
230.000000
0.500000
638
8
97.690000
-0.004000
#DATA
230.000000	0.013000  
230.500000	0.019000  
231.000000	0.025000  
231.500000	-0.002000 
232.000000	-0.004000 
232.500000	0.000000  
233.000000	0.000000  
233.500000	0.003000  
234.000000	0.019000  
234.500000	0.028000  
235.000000	0.020000  
235.500000	0.035000  
236.000000	0.015000  
236.500000	0.016000  
237.000000	0.020000  
237.500000	0.019000  
238.000000	0.000000  
238.500000	0.000000  
239.000000	0.003000  
239.500000	0.014000  
240.000000	0.020000  
240.500000	0.032000  
241.000000	0.011000  
241.500000	0.044000  
242.000000	0.003000  
242.500000	0.023000  
243.000000	0.046000  
243.500000	0.021000  
244.000000	0.048000  
244.500000	0.036000  
245.000000	0.050000  
245.500000	0.060000  
246.000000	0.083000  
246.500000	0.083000  
247.000000	0.169000  
247.500000	0.214000  
248.000000	0.278000  
248.500000	0.337000  
249.000000	0.413000  
249.500000	0.516000  
250.000000	0.662000  
250.500000	0.845000  
251.000000	0.930000  
251.500000	1.141000  
252.000000	1.222000  
252.500000	1.340000  
253.000000	1.721000  
253.500000	1.691000  
254.000000	1.819000  
254.500000	2.202000  
255.000000	2.107000  
255.500000	2.358000  
256.000000	2.574000  
256.500000	2.608000  
257.000000	2.893000  
257.500000	3.072000  
258.000000	3.192000  
258.500000	3.192000  
259.000000	3.387000  
259.500000	3.182000  
260.000000	3.345000  
260.500000	3.491000  
261.000000	3.267000  
261.500000	3.266000  
262.000000	2.922000  
262.500000	2.826000  
263.000000	2.877000  
263.500000	2.520000  
264.000000	2.338000  
264.500000	2.117000  
265.000000	1.936000  
265.500000	1.963000  
266.000000	1.630000  
266.500000	1.520000  
267.000000	1.382000  
267.500000	1.390000  
268.000000	1.170000  
268.500000	0.990000  
269.000000	0.891000  
269.500000	0.744000  
270.000000	0.593000  
270.500000	0.560000  
271.000000	0.502000  
271.500000	0.413000  
272.000000	0.407000  
272.500000	0.267000  
273.000000	0.269000  
273.500000	0.385000  
274.000000	0.372000  
274.500000	0.309000  
275.000000	0.400000  
275.500000	0.496000  
276.000000	0.541000  
276.500000	0.613000  
277.000000	0.677000  
277.500000	0.824000  
278.000000	0.692999  
278.500000	0.838000  
279.000000	1.055000  
279.500000	0.929000  
280.000000	1.225000  
280.500000	1.281000  
281.000000	1.182000  
281.500000	1.441000  
282.000000	1.523000  
282.500000	1.541000  
283.000000	1.569000  
283.500000	1.654000  
284.000000	1.599000  
284.500000	1.555000  
285.000000	1.642000  
285.500000	1.621000  
286.000000	1.570000  
286.500000	1.435000  
287.000000	1.367000  
287.500000	1.436000  
288.000000	1.204000  
288.500000	1.271000  
289.000000	1.247000  
289.500000	1.232000  
290.000000	1.168000  
290.500000	1.122000  
291.000000	1.051000  
291.500000	1.091000  
292.000000	0.803000  
292.500000	0.778000  
293.000000	0.590000  
293.500000	0.562000  
294.000000	0.592000  
294.500000	0.623000  
295.000000	0.500000  
295.500000	0.431000  
296.000000	0.263000  
296.500000	0.278000  
297.000000	0.257000  
297.500000	0.167000  
298.000000	0.141000  
298.500000	0.145000  
299.000000	0.150000  
299.500000	0.116000  
300.000000	0.085000  
300.500000	0.076000  
301.000000	0.064000  
301.500000	0.064000  
302.000000	0.073000  
302.500000	0.078000  
303.000000	0.037000  
303.500000	0.082000  
304.000000	0.077000  
304.500000	0.117000  
305.000000	0.071999  
305.500000	0.070000  
306.000000	0.059000  
306.500000	0.101000  
307.000000	0.075000  
307.500000	0.069000  
308.000000	0.117000  
308.500000	0.101000  
309.000000	0.124000  
309.500000	0.092000  
310.000000	0.027000  
310.500000	0.038000  
311.000000	0.114000  
311.500000	0.055000  
312.000000	0.056000  
312.500000	0.080000  
313.000000	0.025000  
313.500000	0.016000  
314.000000	0.080000  
314.500000	0.095000  
315.000000	0.096000  
315.500000	0.098000  
316.000000	0.087999  
316.500000	0.061000  
317.000000	0.066000  
317.500000	0.082000  
318.000000	0.027000  
318.500000	0.066000  
319.000000	0.044000  
319.500000	0.084000  
320.000000	0.091000  
320.500000	0.113000  
321.000000	0.060000  
321.500000	0.073000  
322.000000	0.082000  
322.500000	0.111000  
323.000000	0.043000  
323.500000	0.063000  
324.000000	0.102000  
324.500000	0.137000  
325.000000	0.114000  
325.500000	0.078000  
326.000000	0.090000  
326.500000	0.118000  
327.000000	0.100000  
327.500000	0.113000  
328.000000	0.095000  
328.500000	0.104000  
329.000000	0.110000  
329.500000	0.060000  
330.000000	0.052000  
330.500000	0.069000  
331.000000	0.079000  
331.500000	0.050000  
332.000000	0.047000  
332.500000	0.086999  
333.000000	0.032000  
333.500000	0.082000  
334.000000	0.087999  
334.500000	0.091000  
335.000000	0.085999  
335.500000	0.089000  
336.000000	0.095000  
336.500000	0.112000  
337.000000	0.089000  
337.500000	0.090000  
338.000000	0.124000  
338.500000	0.078000  
339.000000	0.124000  
339.500000	0.061000  
340.000000	0.074000  
340.500000	0.047000  
341.000000	0.048000  
341.500000	0.084000  
342.000000	0.083000  
342.500000	0.095000  
343.000000	0.059000  
343.500000	0.101000  
344.000000	0.052000  
344.500000	0.027000  
345.000000	0.065000  
345.500000	0.076000  
346.000000	0.055000  
346.500000	0.035000  
347.000000	0.053000  
347.500000	0.085999  
348.000000	0.086999  
348.500000	0.092000  
349.000000	0.090000  
349.500000	0.046000  
350.000000	0.060000  
350.500000	0.100000  
351.000000	0.053000  
351.500000	0.069000  
352.000000	0.133000  
352.500000	0.068000  
353.000000	0.064000  
353.500000	0.070999  
354.000000	0.110000  
354.500000	0.151000  
355.000000	0.076000  
355.500000	0.040000  
356.000000	0.057000  
356.500000	0.090000  
357.000000	0.103000  
357.500000	0.094000  
358.000000	0.087999  
358.500000	0.079000  
359.000000	0.089000  
359.500000	0.071999  
360.000000	0.070999  
360.500000	0.099000  
361.000000	0.062000  
361.500000	0.086999  
362.000000	0.079000  
362.500000	0.058000  
363.000000	0.085999  
363.500000	0.069000  
364.000000	0.097000  
364.500000	0.125000  
365.000000	0.079000  
365.500000	0.081000  
366.000000	0.081000  
366.500000	0.059000  
367.000000	0.071999  
367.500000	0.091000  
368.000000	0.082000  
368.500000	0.053000  
369.000000	0.049000  
369.500000	0.054000  
370.000000	0.043000  
370.500000	0.094000  
371.000000	0.082000  
371.500000	0.043000  
372.000000	0.043000  
372.500000	0.078000  
373.000000	0.051000  
373.500000	0.079000  
374.000000	0.094000  
374.500000	0.098000  
375.000000	0.107000  
375.500000	0.096000  
376.000000	0.103000  
376.500000	0.079000  
377.000000	0.063000  
377.500000	0.066000  
378.000000	0.077000  
378.500000	0.084000  
379.000000	0.106000  
379.500000	0.096000  
380.000000	0.085000  
380.500000	0.093000  
381.000000	0.070999  
381.500000	0.095000  
382.000000	0.076000  
382.500000	0.101000  
383.000000	0.118000  
383.500000	0.078000  
384.000000	0.094000  
384.500000	0.113000  
385.000000	0.078000  
385.500000	0.101000  
386.000000	0.075000  
386.500000	0.083000  
387.000000	0.125000  
387.500000	0.091000  
388.000000	0.098000  
388.500000	0.055000  
389.000000	0.055000  
389.500000	0.094000  
390.000000	0.062000  
390.500000	0.050000  
391.000000	0.073000  
391.500000	0.093000  
392.000000	0.144000  
392.500000	0.085999  
393.000000	0.071999  
393.500000	0.153000  
394.000000	0.083000  
394.500000	0.117000  
395.000000	0.086999  
395.500000	0.115000  
396.000000	0.066000  
396.500000	0.043000  
397.000000	0.092000  
397.500000	0.119000  
398.000000	0.096000  
398.500000	0.077000  
399.000000	0.067000  
399.500000	0.037000  
400.000000	0.062000  
400.500000	0.069000  
401.000000	0.098000  
401.500000	0.094000  
402.000000	0.058000  
402.500000	0.091000  
403.000000	0.091000  
403.500000	0.124000  
404.000000	0.093000  
404.500000	0.089000  
405.000000	0.099000  
405.500000	0.089000  
406.000000	0.063000  
406.500000	0.067000  
407.000000	0.128000  
407.500000	0.083000  
408.000000	0.079000  
408.500000	0.107000  
409.000000	0.152000  
409.500000	0.094000  
410.000000	0.085000  
410.500000	0.054000  
411.000000	0.068000  
411.500000	0.094000  
412.000000	0.095000  
412.500000	0.075000  
413.000000	0.100000  
413.500000	0.114000  
414.000000	0.101000  
414.500000	0.087999  
415.000000	0.098000  
415.500000	0.111000  
416.000000	0.125000  
416.500000	0.163000  
417.000000	0.116000  
417.500000	0.087999  
418.000000	0.121000  
418.500000	0.122000  
419.000000	0.112000  
419.500000	0.099000  
420.000000	0.094000  
420.500000	0.137000  
421.000000	0.122000  
421.500000	0.121000  
422.000000	0.091000  
422.500000	0.103000  
423.000000	0.155000  
423.500000	0.113000  
424.000000	0.094000  
424.500000	0.098000  
425.000000	0.109000  
425.500000	0.092000  
426.000000	0.065000  
426.500000	0.112000  
427.000000	0.134000  
427.500000	0.080000  
428.000000	0.101000  
428.500000	0.124000  
429.000000	0.086999  
429.500000	0.070000  
430.000000	0.091000  
430.500000	0.071999  
431.000000	0.095000  
431.500000	0.104000  
432.000000	0.100000  
432.500000	0.125000  
433.000000	0.127000  
433.500000	0.073000  
434.000000	0.102000  
434.500000	0.144000  
435.000000	0.110000  
435.500000	0.145000  
436.000000	0.119000  
436.500000	0.084000  
437.000000	0.127000  
437.500000	0.134000  
438.000000	0.139000  
438.500000	0.097000  
439.000000	0.098000  
439.500000	0.096000  
440.000000	0.126000  
440.500000	0.102000  
441.000000	0.112000  
441.500000	0.092000  
442.000000	0.085999  
442.500000	0.081000  
443.000000	0.097000  
443.500000	0.102000  
444.000000	0.108000  
444.500000	0.114000  
445.000000	0.105000  
445.500000	0.144000  
446.000000	0.112000  
446.500000	0.108000  
447.000000	0.163000  
447.500000	0.158000  
448.000000	0.096000  
448.500000	0.107000  
449.000000	0.120000  
449.500000	0.081000  
450.000000	0.087999  
450.500000	0.103000  
451.000000	0.130000  
451.500000	0.182000  
452.000000	0.206000  
452.500000	0.192000  
453.000000	0.211000  
453.500000	0.176000  
454.000000	0.125000  
454.500000	0.183000  
455.000000	0.207000  
455.500000	0.205000  
456.000000	0.253000  
456.500000	0.215000  
457.000000	0.172000  
457.500000	0.114000  
458.000000	0.163000  
458.500000	0.141000  
459.000000	0.128000  
459.500000	0.099000  
460.000000	0.124000  
460.500000	0.169000  
461.000000	0.177000  
461.500000	0.108000  
462.000000	0.175000  
462.500000	0.198000  
463.000000	0.157000  
463.500000	0.128000  
464.000000	0.101000  
464.500000	0.123000  
465.000000	0.193000  
465.500000	0.139000  
466.000000	0.181000  
466.500000	0.148000  
467.000000	0.183000  
467.500000	0.145000  
468.000000	0.126000  
468.500000	0.121000  
469.000000	0.114000  
469.500000	0.167000  
470.000000	0.175000  
470.500000	0.136000  
471.000000	0.201000  
471.500000	0.174000  
472.000000	0.226000  
472.500000	0.178000  
473.000000	0.191000  
473.500000	0.194000  
474.000000	0.199000  
474.500000	0.178000  
475.000000	0.195000  
475.500000	0.194000  
476.000000	0.170000  
476.500000	0.241000  
477.000000	0.273000  
477.500000	0.250000  
478.000000	0.193000  
478.500000	0.213000  
479.000000	0.287000  
479.500000	0.259000  
480.000000	0.225000  
480.500000	0.261000  
481.000000	0.285000  
481.500000	0.309000  
482.000000	0.267000  
482.500000	0.309000  
483.000000	0.290000  
483.500000	0.273000  
484.000000	0.426000  
484.500000	0.382000  
485.000000	0.185000  
485.500000	0.280000  
486.000000	0.295000  
486.500000	0.277000  
487.000000	0.241000  
487.500000	0.298000  
488.000000	0.293000  
488.500000	0.250000  
489.000000	0.391000  
489.500000	0.344000  
490.000000	0.312000  
490.500000	0.338000  
491.000000	0.375000  
491.500000	0.392000  
492.000000	0.425000  
492.500000	0.310000  
493.000000	0.357000  
493.500000	0.525000  
494.000000	0.448000  
494.500000	0.329000  
495.000000	0.329000  
495.500000	0.405000  
496.000000	0.348000  
496.500000	0.358000  
497.000000	0.487000  
497.500000	0.380000  
498.000000	0.362000  
498.500000	0.343000  
499.000000	0.468000  
499.500000	0.433000  
500.000000	0.355000  
500.500000	0.408000  
501.000000	0.543000  
501.500000	0.539000  
502.000000	0.468000  
502.500000	0.543000  
503.000000	0.640000  
503.500000	0.852000  
504.000000	1.168000  
504.500000	1.463000  
505.000000	1.904000  
505.500000	2.434000  
506.000000	3.263000  
506.500000	3.884000  
507.000000	5.548000  
507.500000	6.747000  
508.000000	8.541000  
508.500000	10.083000 
509.000000	12.766000 
509.500000	14.836000 
510.000000	18.414000 
510.500000	21.076000 
511.000000	24.167000 
511.500000	27.665000 
512.000000	32.071000 
512.500000	37.288000 
513.000000	41.958000 
513.500000	44.220000 
514.000000	50.539000 
514.500000	54.446000 
515.000000	60.652000 
515.500000	63.675000 
516.000000	68.792000 
516.500000	72.846000 
517.000000	79.608999 
517.500000	82.611999 
518.000000	86.374000 
518.500000	90.580000 
519.000000	92.889000 
519.500000	95.343000 
520.000000	96.140000 
520.500000	96.450999 
521.000000	96.721999 
521.500000	97.690000 
522.000000	97.244000 
522.500000	96.819000 
523.000000	94.749000 
523.500000	92.307000 
524.000000	88.224000 
524.500000	86.205000 
525.000000	82.399000 
525.500000	79.447999 
526.000000	74.521000 
526.500000	70.489999 
527.000000	66.363000 
527.500000	61.939000 
528.000000	57.131000 
528.500000	52.768000 
529.000000	47.969000 
529.500000	43.421000 
530.000000	38.827000 
530.500000	34.991000 
531.000000	31.465000 
531.500000	26.835000 
532.000000	23.913000 
532.500000	20.083000 
533.000000	17.351000 
533.500000	15.405000 
534.000000	12.975000 
534.500000	10.422000 
535.000000	9.619999  
535.500000	7.521000  
536.000000	5.989000  
536.500000	4.963000  
537.000000	3.807000  
537.500000	2.843000  
538.000000	2.190000  
538.500000	1.714000  
539.000000	1.515000  
539.500000	1.226000  
540.000000	1.031000  
540.500000	0.766000  
541.000000	0.699000  
541.500000	0.622000  
542.000000	0.639000  
542.500000	0.550000  
543.000000	0.601000  
543.500000	0.528000  
544.000000	0.523000  
544.500000	0.497000  
545.000000	0.508000  
545.500000	0.414000  
546.000000	0.384000  
546.500000	0.351000  
547.000000	0.318000  
547.500000	0.362000  
548.000000	0.504000  
548.500000	0.364000  

