PE FL                   SPECTRUM    ASCII       PEDS        1.60        
  -1
0124SC~3.SP
19/01/24
13:22:57.00
19/01/24
13:22:57.00


548.500000
1









LS45
405.00
10.00
10.00
SCAN
1
16
100
100
0
600
0
1
0
1
7
ON
550 545 
0 0 0
#HDR
-1
-1
#GR
NM
INT 
0.00002384185791015625
0.0
230.000000
0.500000
638
8
999.999000
0.211000
#DATA
230.000000	0.373000   
230.500000	0.211000   
231.000000	0.284000   
231.500000	0.282000   
232.000000	0.364000   
232.500000	0.363000   
233.000000	0.422000   
233.500000	0.252000   
234.000000	0.340000   
234.500000	0.339000   
235.000000	0.307000   
235.500000	0.349000   
236.000000	0.386000   
236.500000	0.327000   
237.000000	0.301000   
237.500000	0.274000   
238.000000	0.284000   
238.500000	0.342000   
239.000000	0.282000   
239.500000	0.300000   
240.000000	0.251000   
240.500000	0.292000   
241.000000	0.318000   
241.500000	0.326000   
242.000000	0.285000   
242.500000	0.362000   
243.000000	0.291000   
243.500000	0.287000   
244.000000	0.254000   
244.500000	0.318000   
245.000000	0.310000   
245.500000	0.219000   
246.000000	0.282000   
246.500000	0.329000   
247.000000	0.325000   
247.500000	0.298000   
248.000000	0.258000   
248.500000	0.301000   
249.000000	0.211000   
249.500000	0.269000   
250.000000	0.308000   
250.500000	0.229000   
251.000000	0.363000   
251.500000	0.325000   
252.000000	0.308000   
252.500000	0.365000   
253.000000	0.283000   
253.500000	0.333000   
254.000000	0.367000   
254.500000	0.321000   
255.000000	0.296000   
255.500000	0.376000   
256.000000	0.265000   
256.500000	0.366000   
257.000000	0.349000   
257.500000	0.326000   
258.000000	0.347000   
258.500000	0.442000   
259.000000	0.340000   
259.500000	0.295000   
260.000000	0.333000   
260.500000	0.244000   
261.000000	0.296000   
261.500000	0.361000   
262.000000	0.386000   
262.500000	0.410000   
263.000000	0.348000   
263.500000	0.368000   
264.000000	0.343000   
264.500000	0.355000   
265.000000	0.306000   
265.500000	0.399000   
266.000000	0.343000   
266.500000	0.347000   
267.000000	0.378000   
267.500000	0.418000   
268.000000	0.353000   
268.500000	0.378000   
269.000000	0.228000   
269.500000	0.361000   
270.000000	0.435000   
270.500000	0.360000   
271.000000	0.309000   
271.500000	0.344000   
272.000000	0.381000   
272.500000	0.368000   
273.000000	0.312000   
273.500000	0.404000   
274.000000	0.359000   
274.500000	0.356000   
275.000000	0.453000   
275.500000	0.415000   
276.000000	0.279000   
276.500000	0.296000   
277.000000	0.351000   
277.500000	0.338000   
278.000000	0.304000   
278.500000	0.375000   
279.000000	0.326000   
279.500000	0.450000   
280.000000	0.423000   
280.500000	0.347000   
281.000000	0.459000   
281.500000	0.324000   
282.000000	0.293000   
282.500000	0.400000   
283.000000	0.397000   
283.500000	0.385000   
284.000000	0.371000   
284.500000	0.513000   
285.000000	0.402000   
285.500000	0.356000   
286.000000	0.344000   
286.500000	0.431000   
287.000000	0.425000   
287.500000	0.437000   
288.000000	0.458000   
288.500000	0.413000   
289.000000	0.353000   
289.500000	0.374000   
290.000000	0.420000   
290.500000	0.378000   
291.000000	0.363000   
291.500000	0.542000   
292.000000	0.322000   
292.500000	0.460000   
293.000000	0.394000   
293.500000	0.400000   
294.000000	0.332000   
294.500000	0.475000   
295.000000	0.491000   
295.500000	0.410000   
296.000000	0.436000   
296.500000	0.498000   
297.000000	0.546000   
297.500000	0.417000   
298.000000	0.562999   
298.500000	0.616000   
299.000000	0.448000   
299.500000	0.514000   
300.000000	0.527000   
300.500000	0.510000   
301.000000	0.519000   
301.500000	0.554000   
302.000000	0.451000   
302.500000	0.581000   
303.000000	0.636000   
303.500000	0.621000   
304.000000	0.632000   
304.500000	0.611000   
305.000000	0.653000   
305.500000	0.603000   
306.000000	0.597000   
306.500000	0.478000   
307.000000	0.571000   
307.500000	0.597000   
308.000000	0.611000   
308.500000	0.643000   
309.000000	0.635000   
309.500000	0.603000   
310.000000	0.557000   
310.500000	0.662000   
311.000000	0.616000   
311.500000	0.721000   
312.000000	0.640000   
312.500000	0.721000   
313.000000	0.563999   
313.500000	0.659000   
314.000000	0.688999   
314.500000	0.772000   
315.000000	0.646000   
315.500000	0.698000   
316.000000	0.589000   
316.500000	0.746000   
317.000000	0.826000   
317.500000	0.726000   
318.000000	0.799000   
318.500000	0.921000   
319.000000	0.938999   
319.500000	0.868000   
320.000000	0.859000   
320.500000	0.765000   
321.000000	0.854000   
321.500000	0.784000   
322.000000	0.886000   
322.500000	0.945000   
323.000000	0.837000   
323.500000	0.874000   
324.000000	0.958000   
324.500000	0.951000   
325.000000	0.821000   
325.500000	0.910000   
326.000000	1.012000   
326.500000	0.853000   
327.000000	0.876000   
327.500000	0.964000   
328.000000	0.834000   
328.500000	0.896000   
329.000000	1.096000   
329.500000	0.950000   
330.000000	0.879000   
330.500000	0.921000   
331.000000	1.045000   
331.500000	0.798000   
332.000000	0.844000   
332.500000	0.907000   
333.000000	0.883000   
333.500000	0.881000   
334.000000	1.013000   
334.500000	1.088000   
335.000000	0.996000   
335.500000	1.080000   
336.000000	1.045000   
336.500000	1.117000   
337.000000	1.043000   
337.500000	1.079000   
338.000000	1.139000   
338.500000	1.202000   
339.000000	1.191000   
339.500000	1.308000   
340.000000	1.176000   
340.500000	1.284000   
341.000000	1.333000   
341.500000	1.114000   
342.000000	1.070000   
342.500000	1.353000   
343.000000	1.176000   
343.500000	1.333000   
344.000000	1.289000   
344.500000	1.418000   
345.000000	1.462000   
345.500000	1.444000   
346.000000	1.443000   
346.500000	1.499000   
347.000000	1.633000   
347.500000	1.573000   
348.000000	1.680000   
348.500000	1.499000   
349.000000	1.625000   
349.500000	1.713000   
350.000000	1.790000   
350.500000	1.672000   
351.000000	1.872000   
351.500000	1.817000   
352.000000	1.593000   
352.500000	1.919000   
353.000000	2.013000   
353.500000	1.938000   
354.000000	1.957000   
354.500000	2.094000   
355.000000	2.138000   
355.500000	2.164000   
356.000000	2.169000   
356.500000	2.185000   
357.000000	2.252000   
357.500000	2.116000   
358.000000	2.474000   
358.500000	2.337000   
359.000000	2.468000   
359.500000	2.595000   
360.000000	2.621000   
360.500000	2.452000   
361.000000	2.599000   
361.500000	2.791000   
362.000000	2.644000   
362.500000	2.581000   
363.000000	2.883000   
363.500000	2.973000   
364.000000	3.274000   
364.500000	3.064000   
365.000000	3.113000   
365.500000	3.141000   
366.000000	3.062000   
366.500000	3.379000   
367.000000	3.770000   
367.500000	3.595000   
368.000000	3.449000   
368.500000	3.800000   
369.000000	3.741000   
369.500000	3.718000   
370.000000	3.987000   
370.500000	3.933000   
371.000000	4.046000   
371.500000	4.132000   
372.000000	3.991000   
372.500000	4.169000   
373.000000	4.485000   
373.500000	4.940000   
374.000000	4.882000   
374.500000	4.784000   
375.000000	4.984000   
375.500000	5.317000   
376.000000	4.930000   
376.500000	5.105000   
377.000000	5.481000   
377.500000	5.636000   
378.000000	5.668000   
378.500000	6.058000   
379.000000	6.167000   
379.500000	6.733000   
380.000000	6.916000   
380.500000	7.674000   
381.000000	8.109999   
381.500000	9.651000   
382.000000	11.286000  
382.500000	13.540000  
383.000000	16.672000  
383.500000	21.026000  
384.000000	26.826000  
384.500000	33.190000  
385.000000	44.025000  
385.500000	56.694000  
386.000000	72.450000  
386.500000	87.424000  
387.000000	110.124000 
387.500000	131.453000 
388.000000	163.632000 
388.500000	189.389000 
389.000000	226.828000 
389.500000	266.736000 
390.000000	313.067000 
390.500000	363.172000 
391.000000	416.338000 
391.500000	468.126000 
392.000000	527.729000 
392.500000	592.377000 
393.000000	720.023000 
393.500000	732.275000 
394.000000	865.412000 
394.500000	874.679999 
395.000000	986.250000 
395.500000	995.192000 
396.000000	999.999000 
396.500000	999.999000 
397.000000	999.999000 
397.500000	999.999000 
398.000000	999.999000 
398.500000	999.999000 
399.000000	999.999000 
399.500000	999.999000 
400.000000	999.999000 
400.500000	999.999000 
401.000000	999.999000 
401.500000	999.999000 
402.000000	999.999000 
402.500000	999.999000 
403.000000	999.999000 
403.500000	999.999000 
404.000000	999.999000 
404.500000	999.999000 
405.000000	999.999000 
405.500000	999.999000 
406.000000	999.999000 
406.500000	999.999000 
407.000000	999.999000 
407.500000	999.999000 
408.000000	999.999000 
408.500000	916.474000 
409.000000	904.857999 
409.500000	792.510000 
410.000000	779.427000 
410.500000	714.092000 
411.000000	584.817000 
411.500000	575.698000 
412.000000	458.913000 
412.500000	447.112000 
413.000000	389.658000 
413.500000	339.694000 
414.000000	293.170000 
414.500000	243.812000 
415.000000	208.866000 
415.500000	166.085000 
416.000000	133.423000 
416.500000	109.206000 
417.000000	90.964000  
417.500000	71.274000  
418.000000	58.413000  
418.500000	47.058000  
419.000000	38.081000  
419.500000	31.958000  
420.000000	27.502000  
420.500000	23.922000  
421.000000	21.816000  
421.500000	20.564000  
422.000000	19.863000  
422.500000	19.185000  
423.000000	19.878000  
423.500000	19.461000  
424.000000	19.031000  
424.500000	19.852000  
425.000000	19.994000  
425.500000	19.970000  
426.000000	20.105000  
426.500000	20.477000  
427.000000	20.916000  
427.500000	21.375000  
428.000000	21.553000  
428.500000	21.712000  
429.000000	22.443000  
429.500000	22.936000  
430.000000	22.472000  
430.500000	23.496000  
431.000000	23.760000  
431.500000	23.929000  
432.000000	23.440000  
432.500000	23.588000  
433.000000	24.284000  
433.500000	24.752000  
434.000000	24.700000  
434.500000	24.922000  
435.000000	25.088000  
435.500000	25.233000  
436.000000	25.911000  
436.500000	26.318000  
437.000000	26.339000  
437.500000	26.779000  
438.000000	28.171000  
438.500000	27.444000  
439.000000	27.763000  
439.500000	28.090000  
440.000000	28.264000  
440.500000	29.210000  
441.000000	29.819000  
441.500000	29.268000  
442.000000	29.410000  
442.500000	30.301000  
443.000000	30.175000  
443.500000	30.466000  
444.000000	31.169000  
444.500000	31.123000  
445.000000	31.385000  
445.500000	32.421000  
446.000000	32.327000  
446.500000	32.109000  
447.000000	32.127000  
447.500000	32.726000  
448.000000	33.709000  
448.500000	34.050000  
449.000000	33.986000  
449.500000	35.922000  
450.000000	35.317000  
450.500000	36.443000  
451.000000	36.661000  
451.500000	36.424000  
452.000000	38.195000  
452.500000	38.253000  
453.000000	38.753000  
453.500000	39.613000  
454.000000	40.358000  
454.500000	40.805000  
455.000000	42.735000  
455.500000	43.222000  
456.000000	44.051000  
456.500000	45.070000  
457.000000	45.089000  
457.500000	45.314000  
458.000000	46.607000  
458.500000	47.046000  
459.000000	46.833000  
459.500000	47.439000  
460.000000	47.755000  
460.500000	49.321000  
461.000000	50.544000  
461.500000	49.135000  
462.000000	49.275000  
462.500000	50.914000  
463.000000	51.248000  
463.500000	51.080000  
464.000000	50.737000  
464.500000	49.741000  
465.000000	50.946000  
465.500000	50.638000  
466.000000	50.768000  
466.500000	50.513000  
467.000000	50.064000  
467.500000	50.242000  
468.000000	50.332000  
468.500000	48.835000  
469.000000	48.173000  
469.500000	48.669000  
470.000000	47.123000  
470.500000	47.697000  
471.000000	46.469000  
471.500000	46.268000  
472.000000	44.647000  
472.500000	43.593000  
473.000000	43.204000  
473.500000	42.246000  
474.000000	42.728000  
474.500000	41.541000  
475.000000	40.540000  
475.500000	40.458000  
476.000000	38.356000  
476.500000	38.790000  
477.000000	39.252000  
477.500000	36.865000  
478.000000	37.035000  
478.500000	36.620000  
479.000000	34.604000  
479.500000	34.895000  
480.000000	34.967000  
480.500000	34.682000  
481.000000	35.483000  
481.500000	33.944000  
482.000000	33.909000  
482.500000	33.632000  
483.000000	33.462000  
483.500000	33.633000  
484.000000	33.283000  
484.500000	32.431000  
485.000000	32.304000  
485.500000	32.078000  
486.000000	33.000000  
486.500000	31.636000  
487.000000	31.290000  
487.500000	31.383000  
488.000000	31.421000  
488.500000	31.908000  
489.000000	31.011000  
489.500000	30.746000  
490.000000	31.100000  
490.500000	31.365000  
491.000000	31.136000  
491.500000	30.148000  
492.000000	30.269000  
492.500000	30.720000  
493.000000	30.196000  
493.500000	30.508000  
494.000000	29.947000  
494.500000	29.065000  
495.000000	29.153000  
495.500000	29.880000  
496.000000	29.582000  
496.500000	29.881000  
497.000000	28.794000  
497.500000	29.177000  
498.000000	28.721000  
498.500000	28.487000  
499.000000	29.590000  
499.500000	28.521000  
500.000000	28.471000  
500.500000	28.431000  
501.000000	27.983000  
501.500000	27.795000  
502.000000	27.354000  
502.500000	27.733000  
503.000000	27.649000  
503.500000	27.280000  
504.000000	27.419000  
504.500000	26.835000  
505.000000	27.051000  
505.500000	26.925000  
506.000000	27.297000  
506.500000	26.414000  
507.000000	26.797000  
507.500000	26.835000  
508.000000	26.254000  
508.500000	25.129000  
509.000000	25.280000  
509.500000	25.383000  
510.000000	25.350000  
510.500000	25.492000  
511.000000	25.257000  
511.500000	24.644000  
512.000000	24.445000  
512.500000	24.748000  
513.000000	24.217000  
513.500000	23.541000  
514.000000	23.891000  
514.500000	23.787000  
515.000000	23.893000  
515.500000	23.783000  
516.000000	23.514000  
516.500000	23.190000  
517.000000	22.490000  
517.500000	22.362000  
518.000000	22.198000  
518.500000	21.950000  
519.000000	21.653000  
519.500000	21.725000  
520.000000	21.704000  
520.500000	21.701000  
521.000000	21.070000  
521.500000	20.942000  
522.000000	20.637000  
522.500000	20.389000  
523.000000	19.875000  
523.500000	20.555000  
524.000000	20.297000  
524.500000	19.951000  
525.000000	19.670000  
525.500000	19.308000  
526.000000	19.078000  
526.500000	19.443000  
527.000000	19.267000  
527.500000	18.673000  
528.000000	18.581000  
528.500000	18.066000  
529.000000	17.503000  
529.500000	18.089000  
530.000000	17.463000  
530.500000	17.628000  
531.000000	17.522000  
531.500000	16.736000  
532.000000	16.792000  
532.500000	17.387000  
533.000000	16.725000  
533.500000	16.649000  
534.000000	16.218000  
534.500000	15.491000  
535.000000	15.364000  
535.500000	15.371000  
536.000000	15.587000  
536.500000	15.026000  
537.000000	14.458000  
537.500000	14.391000  
538.000000	14.682000  
538.500000	13.840000  
539.000000	13.775000  
539.500000	14.098000  
540.000000	13.584000  
540.500000	13.650000  
541.000000	13.393000  
541.500000	13.701000  
542.000000	13.501000  
542.500000	13.184000  
543.000000	13.237000  
543.500000	12.988000  
544.000000	12.483000  
544.500000	12.319000  
545.000000	12.733000  
545.500000	12.205000  
546.000000	11.992000  
546.500000	11.288000  
547.000000	11.288000  
547.500000	11.492000  
548.000000	11.153000  
548.500000	10.856000  

