PE FL                   SPECTRUM    ASCII       PEDS        1.60        
  -1
015907~1.SP
19/01/24
13:39:33.00
19/01/24
13:39:33.00


548.500000
1









LS45
515.00
10.00
10.00
SCAN
1
16
100
100
0
600
0
1
0
1
7
ON
550 545 
0 0 0
#HDR
-1
-1
#GR
NM
INT 
0.00002384185791015625
0.0
230.000000
0.500000
638
8
422.810000
0.016000
#DATA
230.000000	0.016000   
230.500000	0.074000   
231.000000	0.061000   
231.500000	0.033000   
232.000000	0.037000   
232.500000	0.048000   
233.000000	0.037000   
233.500000	0.026000   
234.000000	0.066000   
234.500000	0.056000   
235.000000	0.035000   
235.500000	0.098000   
236.000000	0.054000   
236.500000	0.070000   
237.000000	0.058000   
237.500000	0.017000   
238.000000	0.038000   
238.500000	0.066000   
239.000000	0.062000   
239.500000	0.097000   
240.000000	0.103000   
240.500000	0.115000   
241.000000	0.159000   
241.500000	0.229000   
242.000000	0.304000   
242.500000	0.288000   
243.000000	0.323000   
243.500000	0.386000   
244.000000	0.555000   
244.500000	0.766000   
245.000000	0.878000   
245.500000	0.852000   
246.000000	0.977000   
246.500000	1.216000   
247.000000	1.589000   
247.500000	1.755000   
248.000000	1.771000   
248.500000	2.017000   
249.000000	1.999000   
249.500000	2.359000   
250.000000	2.526000   
250.500000	2.749000   
251.000000	3.053000   
251.500000	3.298000   
252.000000	3.384000   
252.500000	3.421000   
253.000000	3.663000   
253.500000	3.507000   
254.000000	3.780000   
254.500000	4.177000   
255.000000	3.717000   
255.500000	3.707000   
256.000000	3.522000   
256.500000	3.856000   
257.000000	3.689000   
257.500000	3.458000   
258.000000	3.345000   
258.500000	3.172000   
259.000000	2.977000   
259.500000	2.905000   
260.000000	2.795000   
260.500000	2.370000   
261.000000	2.372000   
261.500000	2.022000   
262.000000	1.934000   
262.500000	1.639000   
263.000000	1.517000   
263.500000	1.306000   
264.000000	1.153000   
264.500000	1.160000   
265.000000	0.852000   
265.500000	0.858000   
266.000000	0.717000   
266.500000	0.633000   
267.000000	0.398000   
267.500000	0.446000   
268.000000	0.482000   
268.500000	0.383000   
269.000000	0.403000   
269.500000	0.394000   
270.000000	0.386000   
270.500000	0.373000   
271.000000	0.321000   
271.500000	0.491000   
272.000000	0.549000   
272.500000	0.528000   
273.000000	0.593000   
273.500000	0.639000   
274.000000	0.641000   
274.500000	0.695000   
275.000000	0.782000   
275.500000	0.841000   
276.000000	0.906000   
276.500000	0.889000   
277.000000	0.823000   
277.500000	0.768000   
278.000000	0.742000   
278.500000	0.931000   
279.000000	0.970000   
279.500000	1.004000   
280.000000	0.896000   
280.500000	0.837000   
281.000000	0.962000   
281.500000	0.910000   
282.000000	0.863000   
282.500000	0.928000   
283.000000	0.891000   
283.500000	0.683000   
284.000000	0.756000   
284.500000	0.660000   
285.000000	0.581000   
285.500000	0.614000   
286.000000	0.545000   
286.500000	0.571000   
287.000000	0.633000   
287.500000	0.476000   
288.000000	0.377000   
288.500000	0.420000   
289.000000	0.344000   
289.500000	0.334000   
290.000000	0.322000   
290.500000	0.390000   
291.000000	0.277000   
291.500000	0.266000   
292.000000	0.303000   
292.500000	0.320000   
293.000000	0.267000   
293.500000	0.227000   
294.000000	0.215000   
294.500000	0.240000   
295.000000	0.222000   
295.500000	0.197000   
296.000000	0.166000   
296.500000	0.178000   
297.000000	0.234000   
297.500000	0.234000   
298.000000	0.253000   
298.500000	0.269000   
299.000000	0.260000   
299.500000	0.216000   
300.000000	0.216000   
300.500000	0.262000   
301.000000	0.212000   
301.500000	0.316000   
302.000000	0.350000   
302.500000	0.324000   
303.000000	0.229000   
303.500000	0.259000   
304.000000	0.289000   
304.500000	0.305000   
305.000000	0.412000   
305.500000	0.326000   
306.000000	0.323000   
306.500000	0.377000   
307.000000	0.336000   
307.500000	0.348000   
308.000000	0.403000   
308.500000	0.415000   
309.000000	0.443000   
309.500000	0.437000   
310.000000	0.445000   
310.500000	0.437000   
311.000000	0.371000   
311.500000	0.389000   
312.000000	0.422000   
312.500000	0.517000   
313.000000	0.442000   
313.500000	0.485000   
314.000000	0.593000   
314.500000	0.458000   
315.000000	0.479000   
315.500000	0.492000   
316.000000	0.498000   
316.500000	0.520000   
317.000000	0.510000   
317.500000	0.490000   
318.000000	0.462000   
318.500000	0.443000   
319.000000	0.564999   
319.500000	0.514000   
320.000000	0.470000   
320.500000	0.679000   
321.000000	0.773000   
321.500000	0.720000   
322.000000	0.670000   
322.500000	0.659000   
323.000000	0.626000   
323.500000	0.726000   
324.000000	0.637000   
324.500000	0.637000   
325.000000	0.681000   
325.500000	0.800000   
326.000000	0.784000   
326.500000	0.761000   
327.000000	0.867000   
327.500000	0.797000   
328.000000	0.914000   
328.500000	0.918000   
329.000000	0.905000   
329.500000	0.781000   
330.000000	0.892000   
330.500000	0.798000   
331.000000	0.898000   
331.500000	0.948000   
332.000000	1.020000   
332.500000	0.884000   
333.000000	0.893000   
333.500000	0.862000   
334.000000	0.973000   
334.500000	1.171000   
335.000000	1.043000   
335.500000	1.112000   
336.000000	1.092000   
336.500000	1.079000   
337.000000	1.092000   
337.500000	1.125000   
338.000000	1.254000   
338.500000	1.196000   
339.000000	0.929000   
339.500000	0.866000   
340.000000	0.962000   
340.500000	1.043000   
341.000000	1.076000   
341.500000	1.172000   
342.000000	1.137000   
342.500000	1.209000   
343.000000	1.135000   
343.500000	1.100000   
344.000000	1.182000   
344.500000	1.232000   
345.000000	1.293000   
345.500000	1.339000   
346.000000	1.222000   
346.500000	1.290000   
347.000000	1.248000   
347.500000	1.406000   
348.000000	1.263000   
348.500000	1.424000   
349.000000	1.298000   
349.500000	1.335000   
350.000000	1.352000   
350.500000	1.281000   
351.000000	1.383000   
351.500000	1.414000   
352.000000	1.288000   
352.500000	1.538000   
353.000000	1.351000   
353.500000	1.406000   
354.000000	1.316000   
354.500000	1.378000   
355.000000	1.274000   
355.500000	1.499000   
356.000000	1.511000   
356.500000	1.321000   
357.000000	1.374000   
357.500000	1.343000   
358.000000	1.395000   
358.500000	1.394000   
359.000000	1.379000   
359.500000	1.440000   
360.000000	1.447000   
360.500000	1.557000   
361.000000	1.365000   
361.500000	1.317000   
362.000000	1.416000   
362.500000	1.381000   
363.000000	1.506000   
363.500000	1.445000   
364.000000	1.381000   
364.500000	1.280000   
365.000000	1.384000   
365.500000	1.409000   
366.000000	1.318000   
366.500000	1.472000   
367.000000	1.337000   
367.500000	1.312000   
368.000000	1.325000   
368.500000	1.393000   
369.000000	1.437000   
369.500000	1.407000   
370.000000	1.405000   
370.500000	1.315000   
371.000000	1.373000   
371.500000	1.564000   
372.000000	1.631000   
372.500000	1.589000   
373.000000	1.455000   
373.500000	1.530000   
374.000000	1.361000   
374.500000	1.541000   
375.000000	1.574000   
375.500000	1.528000   
376.000000	1.407000   
376.500000	1.515000   
377.000000	1.558000   
377.500000	1.419000   
378.000000	1.431000   
378.500000	1.406000   
379.000000	1.479000   
379.500000	1.498000   
380.000000	1.429000   
380.500000	1.482000   
381.000000	1.514000   
381.500000	1.358000   
382.000000	1.585000   
382.500000	1.485000   
383.000000	1.515000   
383.500000	1.405000   
384.000000	1.478000   
384.500000	1.369000   
385.000000	1.500000   
385.500000	1.442000   
386.000000	1.403000   
386.500000	1.619000   
387.000000	1.651000   
387.500000	1.502000   
388.000000	1.382000   
388.500000	1.295000   
389.000000	1.387000   
389.500000	1.424000   
390.000000	1.446000   
390.500000	1.394000   
391.000000	1.444000   
391.500000	1.344000   
392.000000	1.365000   
392.500000	1.343000   
393.000000	1.357000   
393.500000	1.399000   
394.000000	1.346000   
394.500000	1.474000   
395.000000	1.500000   
395.500000	1.311000   
396.000000	1.484000   
396.500000	1.247000   
397.000000	1.306000   
397.500000	1.383000   
398.000000	1.291000   
398.500000	1.377000   
399.000000	1.205000   
399.500000	1.256000   
400.000000	1.242000   
400.500000	1.498000   
401.000000	1.489000   
401.500000	1.324000   
402.000000	1.364000   
402.500000	1.372000   
403.000000	1.231000   
403.500000	1.436000   
404.000000	1.401000   
404.500000	1.573000   
405.000000	1.443000   
405.500000	1.548000   
406.000000	1.491000   
406.500000	1.338000   
407.000000	1.284000   
407.500000	1.447000   
408.000000	1.403000   
408.500000	1.463000   
409.000000	1.388000   
409.500000	1.435000   
410.000000	1.514000   
410.500000	1.359000   
411.000000	1.450000   
411.500000	1.457000   
412.000000	1.410000   
412.500000	1.511000   
413.000000	1.505000   
413.500000	1.461000   
414.000000	1.612000   
414.500000	1.443000   
415.000000	1.409000   
415.500000	1.401000   
416.000000	1.559000   
416.500000	1.436000   
417.000000	1.650000   
417.500000	1.408000   
418.000000	1.415000   
418.500000	1.462000   
419.000000	1.529000   
419.500000	1.535000   
420.000000	1.451000   
420.500000	1.618000   
421.000000	1.723000   
421.500000	1.692000   
422.000000	1.429000   
422.500000	1.634000   
423.000000	1.541000   
423.500000	1.800000   
424.000000	1.667000   
424.500000	1.701000   
425.000000	1.596000   
425.500000	1.712000   
426.000000	1.412000   
426.500000	1.584000   
427.000000	1.819000   
427.500000	1.791000   
428.000000	1.629000   
428.500000	1.690000   
429.000000	1.790000   
429.500000	1.794000   
430.000000	1.627000   
430.500000	1.638000   
431.000000	1.654000   
431.500000	1.604000   
432.000000	1.639000   
432.500000	1.917000   
433.000000	1.839000   
433.500000	1.744000   
434.000000	1.736000   
434.500000	1.736000   
435.000000	1.670000   
435.500000	1.742000   
436.000000	1.811000   
436.500000	2.047000   
437.000000	1.739000   
437.500000	1.931000   
438.000000	2.043000   
438.500000	1.941000   
439.000000	2.009000   
439.500000	1.901000   
440.000000	1.914000   
440.500000	1.975000   
441.000000	1.976000   
441.500000	1.874000   
442.000000	2.040000   
442.500000	2.072000   
443.000000	1.751000   
443.500000	1.997000   
444.000000	2.046000   
444.500000	2.052000   
445.000000	2.058000   
445.500000	1.895000   
446.000000	2.099000   
446.500000	1.812000   
447.000000	1.972000   
447.500000	2.146000   
448.000000	2.092000   
448.500000	2.009000   
449.000000	1.999000   
449.500000	2.210000   
450.000000	2.121000   
450.500000	2.196000   
451.000000	2.195000   
451.500000	2.110000   
452.000000	2.144000   
452.500000	2.095000   
453.000000	2.329000   
453.500000	2.127000   
454.000000	2.041000   
454.500000	2.070000   
455.000000	2.017000   
455.500000	2.353000   
456.000000	2.082000   
456.500000	2.121000   
457.000000	2.012000   
457.500000	1.923000   
458.000000	2.187000   
458.500000	2.172000   
459.000000	2.313000   
459.500000	2.141000   
460.000000	2.096000   
460.500000	2.193000   
461.000000	2.158000   
461.500000	2.354000   
462.000000	2.262000   
462.500000	2.291000   
463.000000	2.264000   
463.500000	2.160000   
464.000000	2.028000   
464.500000	2.025000   
465.000000	2.103000   
465.500000	1.994000   
466.000000	2.115000   
466.500000	2.180000   
467.000000	2.070000   
467.500000	2.077000   
468.000000	2.162000   
468.500000	2.122000   
469.000000	2.106000   
469.500000	2.284000   
470.000000	2.234000   
470.500000	2.055000   
471.000000	2.193000   
471.500000	2.171000   
472.000000	2.202000   
472.500000	2.080000   
473.000000	1.969000   
473.500000	2.019000   
474.000000	2.152000   
474.500000	2.204000   
475.000000	2.420000   
475.500000	2.260000   
476.000000	2.242000   
476.500000	2.429000   
477.000000	2.364000   
477.500000	2.544000   
478.000000	2.238000   
478.500000	2.349000   
479.000000	2.374000   
479.500000	2.629000   
480.000000	2.810000   
480.500000	2.582000   
481.000000	2.633000   
481.500000	2.747000   
482.000000	2.759000   
482.500000	2.871000   
483.000000	2.829000   
483.500000	2.886000   
484.000000	3.081000   
484.500000	3.004000   
485.000000	2.766000   
485.500000	2.689000   
486.000000	2.893000   
486.500000	2.943000   
487.000000	2.689000   
487.500000	2.929000   
488.000000	3.078000   
488.500000	3.228000   
489.000000	3.298000   
489.500000	3.286000   
490.000000	3.380000   
490.500000	3.165000   
491.000000	3.650000   
491.500000	4.055000   
492.000000	4.373000   
492.500000	5.278000   
493.000000	5.926000   
493.500000	8.084000   
494.000000	10.333000  
494.500000	13.050000  
495.000000	15.620000  
495.500000	19.129000  
496.000000	23.668000  
496.500000	29.962000  
497.000000	37.602000  
497.500000	46.335000  
498.000000	52.811000  
498.500000	62.299000  
499.000000	73.657000  
499.500000	87.974999  
500.000000	99.641000  
500.500000	114.118000 
501.000000	129.947000 
501.500000	145.327000 
502.000000	166.628000 
502.500000	181.423000 
503.000000	199.698000 
503.500000	216.950000 
504.000000	237.665000 
504.500000	257.504000 
505.000000	279.171000 
505.500000	294.977000 
506.000000	318.721000 
506.500000	332.058000 
507.000000	347.178000 
507.500000	365.524000 
508.000000	379.289000 
508.500000	392.906000 
509.000000	403.932000 
509.500000	408.893000 
510.000000	416.847000 
510.500000	420.520000 
511.000000	422.810000 
511.500000	419.579000 
512.000000	413.791000 
512.500000	410.837000 
513.000000	402.861000 
513.500000	395.554000 
514.000000	381.530000 
514.500000	369.632000 
515.000000	349.338000 
515.500000	337.812000 
516.000000	315.817000 
516.500000	302.300000 
517.000000	276.047000 
517.500000	256.959000 
518.000000	235.521000 
518.500000	221.385000 
519.000000	198.663000 
519.500000	180.427000 
520.000000	160.264000 
520.500000	145.671000 
521.000000	128.722000 
521.500000	112.652000 
522.000000	93.996000  
522.500000	83.646000  
523.000000	71.306000  
523.500000	60.505000  
524.000000	49.928000  
524.500000	43.124000  
525.000000	35.308000  
525.500000	28.994000  
526.000000	22.953000  
526.500000	17.941000  
527.000000	15.104000  
527.500000	11.763000  
528.000000	9.445000   
528.500000	7.236000   
529.000000	5.582000   
529.500000	4.631000   
530.000000	3.779000   
530.500000	3.402000   
531.000000	3.023000   
531.500000	2.744000   
532.000000	2.327000   
532.500000	2.455000   
533.000000	2.325000   
533.500000	2.222000   
534.000000	2.188000   
534.500000	2.103000   
535.000000	2.149000   
535.500000	2.181000   
536.000000	2.212000   
536.500000	2.010000   
537.000000	1.966000   
537.500000	1.784000   
538.000000	1.901000   
538.500000	1.876000   
539.000000	1.967000   
539.500000	1.741000   
540.000000	1.731000   
540.500000	1.615000   
541.000000	1.656000   
541.500000	1.701000   
542.000000	1.749000   
542.500000	1.537000   
543.000000	1.620000   
543.500000	1.902000   
544.000000	1.737000   
544.500000	1.806000   
545.000000	1.738000   
545.500000	1.529000   
546.000000	1.676000   
546.500000	1.827000   
547.000000	1.629000   
547.500000	1.642000   
548.000000	1.843000   
548.500000	1.864000   

