PE FL                   SPECTRUM    ASCII       PEDS        1.60        
  -1
0124SC~1.SP
19/01/24
13:44:05.00
19/01/24
13:44:05.00


548.500000
1









LS45
545.00
10.00
10.00
SCAN
1
16
100
100
0
600
0
1
0
1
7
ON
550 545 
0 0 0
#HDR
-1
-1
#GR
NM
INT 
0.00002384185791015625
0.0
230.000000
0.500000
638
8
254.326000
0.000000
#DATA
230.000000	0.016000   
230.500000	0.003000   
231.000000	0.015000   
231.500000	0.016000   
232.000000	0.023000   
232.500000	0.045000   
233.000000	0.035000   
233.500000	0.037000   
234.000000	0.020000   
234.500000	0.007000   
235.000000	0.041000   
235.500000	0.052000   
236.000000	0.007000   
236.500000	0.028000   
237.000000	0.019000   
237.500000	0.024000   
238.000000	0.020000   
238.500000	0.036000   
239.000000	0.036000   
239.500000	0.020000   
240.000000	0.038000   
240.500000	0.024000   
241.000000	0.023000   
241.500000	0.042000   
242.000000	0.018000   
242.500000	0.021000   
243.000000	0.026000   
243.500000	0.054000   
244.000000	0.004000   
244.500000	0.000000   
245.000000	0.004000   
245.500000	0.025000   
246.000000	0.053000   
246.500000	0.035000   
247.000000	0.033000   
247.500000	0.039000   
248.000000	0.059000   
248.500000	0.040000   
249.000000	0.062000   
249.500000	0.064000   
250.000000	0.052000   
250.500000	0.043000   
251.000000	0.054000   
251.500000	0.033000   
252.000000	0.037000   
252.500000	0.056000   
253.000000	0.084000   
253.500000	0.092000   
254.000000	0.100000   
254.500000	0.131000   
255.000000	0.126000   
255.500000	0.119000   
256.000000	0.197000   
256.500000	0.342000   
257.000000	0.446000   
257.500000	0.464000   
258.000000	0.588000   
258.500000	0.756000   
259.000000	1.007000   
259.500000	1.023000   
260.000000	1.411000   
260.500000	1.620000   
261.000000	1.709000   
261.500000	2.117000   
262.000000	2.351000   
262.500000	2.861000   
263.000000	3.000000   
263.500000	3.319000   
264.000000	3.677000   
264.500000	3.872000   
265.000000	4.160000   
265.500000	4.123000   
266.000000	4.713000   
266.500000	4.900000   
267.000000	5.087000   
267.500000	5.109000   
268.000000	5.341000   
268.500000	6.004000   
269.000000	5.872000   
269.500000	5.962000   
270.000000	5.917000   
270.500000	5.795000   
271.000000	5.667000   
271.500000	5.687000   
272.000000	5.635000   
272.500000	5.267000   
273.000000	4.862000   
273.500000	4.626000   
274.000000	4.005000   
274.500000	4.297000   
275.000000	3.836000   
275.500000	3.555000   
276.000000	3.290000   
276.500000	2.781000   
277.000000	2.482000   
277.500000	2.333000   
278.000000	1.972000   
278.500000	1.889000   
279.000000	1.542000   
279.500000	1.459000   
280.000000	1.072000   
280.500000	0.856000   
281.000000	0.726000   
281.500000	0.586000   
282.000000	0.403000   
282.500000	0.408000   
283.000000	0.340000   
283.500000	0.305000   
284.000000	0.313000   
284.500000	0.335000   
285.000000	0.365000   
285.500000	0.336000   
286.000000	0.350000   
286.500000	0.320000   
287.000000	0.419000   
287.500000	0.427000   
288.000000	0.400000   
288.500000	0.544000   
289.000000	0.554000   
289.500000	0.595000   
290.000000	0.703000   
290.500000	0.697000   
291.000000	0.848000   
291.500000	0.750000   
292.000000	0.794000   
292.500000	0.790000   
293.000000	0.872000   
293.500000	0.845000   
294.000000	0.927000   
294.500000	1.046000   
295.000000	1.026000   
295.500000	1.014000   
296.000000	1.027000   
296.500000	1.110000   
297.000000	1.212000   
297.500000	1.213000   
298.000000	1.196000   
298.500000	1.228000   
299.000000	1.232000   
299.500000	1.193000   
300.000000	1.241000   
300.500000	1.127000   
301.000000	1.099000   
301.500000	1.084000   
302.000000	1.146000   
302.500000	0.977000   
303.000000	0.911000   
303.500000	1.084000   
304.000000	0.909000   
304.500000	0.899000   
305.000000	0.951000   
305.500000	0.843000   
306.000000	0.825000   
306.500000	0.796000   
307.000000	0.721000   
307.500000	0.765000   
308.000000	0.723000   
308.500000	0.622000   
309.000000	0.677000   
309.500000	0.646000   
310.000000	0.610000   
310.500000	0.715000   
311.000000	0.728000   
311.500000	0.544000   
312.000000	0.662000   
312.500000	0.761000   
313.000000	0.746000   
313.500000	0.694000   
314.000000	0.770000   
314.500000	0.728000   
315.000000	0.681000   
315.500000	0.756000   
316.000000	0.851000   
316.500000	0.730000   
317.000000	0.847000   
317.500000	0.850000   
318.000000	0.895000   
318.500000	0.833000   
319.000000	0.824000   
319.500000	0.899000   
320.000000	0.837000   
320.500000	0.745000   
321.000000	0.928000   
321.500000	1.003000   
322.000000	0.920000   
322.500000	1.069000   
323.000000	1.106000   
323.500000	1.025000   
324.000000	0.963000   
324.500000	1.104000   
325.000000	1.084000   
325.500000	1.046000   
326.000000	1.309000   
326.500000	1.227000   
327.000000	1.222000   
327.500000	1.122000   
328.000000	1.222000   
328.500000	1.196000   
329.000000	1.160000   
329.500000	1.082000   
330.000000	1.195000   
330.500000	1.139000   
331.000000	1.347000   
331.500000	1.356000   
332.000000	1.563000   
332.500000	1.346000   
333.000000	1.420000   
333.500000	1.476000   
334.000000	1.348000   
334.500000	1.508000   
335.000000	1.376000   
335.500000	1.375000   
336.000000	1.544000   
336.500000	1.703000   
337.000000	1.610000   
337.500000	1.561000   
338.000000	1.469000   
338.500000	1.371000   
339.000000	1.577000   
339.500000	1.583000   
340.000000	1.672000   
340.500000	1.534000   
341.000000	1.621000   
341.500000	1.477000   
342.000000	1.544000   
342.500000	1.721000   
343.000000	1.589000   
343.500000	1.481000   
344.000000	1.548000   
344.500000	1.782000   
345.000000	1.466000   
345.500000	1.585000   
346.000000	1.711000   
346.500000	1.733000   
347.000000	1.947000   
347.500000	1.719000   
348.000000	1.596000   
348.500000	1.612000   
349.000000	1.771000   
349.500000	1.762000   
350.000000	1.789000   
350.500000	1.603000   
351.000000	1.824000   
351.500000	1.834000   
352.000000	1.805000   
352.500000	1.818000   
353.000000	1.793000   
353.500000	1.636000   
354.000000	1.750000   
354.500000	1.870000   
355.000000	1.756000   
355.500000	1.905000   
356.000000	1.819000   
356.500000	2.015000   
357.000000	1.897000   
357.500000	1.605000   
358.000000	1.650000   
358.500000	1.656000   
359.000000	1.913000   
359.500000	1.679000   
360.000000	1.733000   
360.500000	1.697000   
361.000000	1.576000   
361.500000	1.748000   
362.000000	1.609000   
362.500000	1.531000   
363.000000	1.633000   
363.500000	1.397000   
364.000000	1.533000   
364.500000	1.826000   
365.000000	1.642000   
365.500000	1.519000   
366.000000	1.581000   
366.500000	1.538000   
367.000000	1.718000   
367.500000	1.915000   
368.000000	1.534000   
368.500000	1.632000   
369.000000	1.628000   
369.500000	1.721000   
370.000000	1.664000   
370.500000	1.545000   
371.000000	1.442000   
371.500000	1.506000   
372.000000	1.334000   
372.500000	1.543000   
373.000000	1.590000   
373.500000	1.689000   
374.000000	1.578000   
374.500000	1.637000   
375.000000	1.589000   
375.500000	1.621000   
376.000000	1.568000   
376.500000	1.624000   
377.000000	1.516000   
377.500000	1.410000   
378.000000	1.527000   
378.500000	1.508000   
379.000000	1.464000   
379.500000	1.487000   
380.000000	1.360000   
380.500000	1.568000   
381.000000	1.374000   
381.500000	1.444000   
382.000000	1.465000   
382.500000	1.489000   
383.000000	1.430000   
383.500000	1.308000   
384.000000	1.273000   
384.500000	1.321000   
385.000000	1.420000   
385.500000	1.496000   
386.000000	1.450000   
386.500000	1.430000   
387.000000	1.252000   
387.500000	1.320000   
388.000000	1.260000   
388.500000	1.276000   
389.000000	1.494000   
389.500000	1.321000   
390.000000	1.312000   
390.500000	1.339000   
391.000000	1.264000   
391.500000	1.248000   
392.000000	1.134000   
392.500000	1.220000   
393.000000	1.187000   
393.500000	1.082000   
394.000000	1.265000   
394.500000	1.187000   
395.000000	1.245000   
395.500000	1.149000   
396.000000	1.175000   
396.500000	1.233000   
397.000000	1.265000   
397.500000	1.165000   
398.000000	1.159000   
398.500000	1.201000   
399.000000	1.184000   
399.500000	1.315000   
400.000000	1.199000   
400.500000	1.044000   
401.000000	1.094000   
401.500000	1.036000   
402.000000	1.176000   
402.500000	1.304000   
403.000000	1.224000   
403.500000	1.160000   
404.000000	1.154000   
404.500000	1.166000   
405.000000	1.229000   
405.500000	1.088000   
406.000000	1.136000   
406.500000	1.105000   
407.000000	1.139000   
407.500000	1.211000   
408.000000	1.271000   
408.500000	1.115000   
409.000000	1.181000   
409.500000	1.107000   
410.000000	1.209000   
410.500000	1.158000   
411.000000	1.088000   
411.500000	1.062000   
412.000000	1.108000   
412.500000	1.209000   
413.000000	1.063000   
413.500000	0.987000   
414.000000	1.100000   
414.500000	1.188000   
415.000000	1.167000   
415.500000	1.056000   
416.000000	1.174000   
416.500000	1.157000   
417.000000	1.084000   
417.500000	1.076000   
418.000000	1.103000   
418.500000	1.063000   
419.000000	1.019000   
419.500000	0.940999   
420.000000	0.983000   
420.500000	0.870000   
421.000000	1.047000   
421.500000	0.983000   
422.000000	1.045000   
422.500000	0.989000   
423.000000	0.868000   
423.500000	0.947000   
424.000000	0.977000   
424.500000	1.078000   
425.000000	1.266000   
425.500000	1.012000   
426.000000	1.087000   
426.500000	1.111000   
427.000000	1.116000   
427.500000	1.172000   
428.000000	1.035000   
428.500000	1.012000   
429.000000	1.005000   
429.500000	1.003000   
430.000000	0.953000   
430.500000	1.010000   
431.000000	1.070000   
431.500000	1.211000   
432.000000	1.083000   
432.500000	0.887000   
433.000000	0.784000   
433.500000	0.889000   
434.000000	0.972000   
434.500000	1.065000   
435.000000	1.124000   
435.500000	0.939999   
436.000000	0.947000   
436.500000	1.007000   
437.000000	0.918000   
437.500000	0.949000   
438.000000	1.034000   
438.500000	1.148000   
439.000000	1.126000   
439.500000	1.011000   
440.000000	0.983000   
440.500000	0.977000   
441.000000	1.128000   
441.500000	0.931000   
442.000000	1.026000   
442.500000	1.039000   
443.000000	1.125000   
443.500000	1.205000   
444.000000	1.099000   
444.500000	1.015000   
445.000000	1.005000   
445.500000	1.024000   
446.000000	1.011000   
446.500000	1.024000   
447.000000	1.070000   
447.500000	1.117000   
448.000000	1.130000   
448.500000	1.003000   
449.000000	0.961000   
449.500000	1.145000   
450.000000	1.101000   
450.500000	0.951000   
451.000000	1.059000   
451.500000	1.141000   
452.000000	1.154000   
452.500000	0.814999   
453.000000	0.875000   
453.500000	1.036000   
454.000000	1.234000   
454.500000	1.184000   
455.000000	1.083000   
455.500000	1.093000   
456.000000	1.027000   
456.500000	1.010000   
457.000000	1.022000   
457.500000	1.064000   
458.000000	0.981000   
458.500000	1.158000   
459.000000	1.064000   
459.500000	0.968000   
460.000000	0.863000   
460.500000	0.984000   
461.000000	0.925000   
461.500000	1.041000   
462.000000	0.940999   
462.500000	0.961000   
463.000000	0.733000   
463.500000	0.878000   
464.000000	1.043000   
464.500000	1.080000   
465.000000	1.094000   
465.500000	0.831000   
466.000000	0.855000   
466.500000	0.970000   
467.000000	0.950000   
467.500000	1.064000   
468.000000	1.126000   
468.500000	1.031000   
469.000000	0.985000   
469.500000	0.968000   
470.000000	0.859000   
470.500000	1.000000   
471.000000	0.834000   
471.500000	1.005000   
472.000000	0.934000   
472.500000	1.034000   
473.000000	0.989000   
473.500000	1.062000   
474.000000	0.889000   
474.500000	0.972000   
475.000000	1.103000   
475.500000	1.090000   
476.000000	1.174000   
476.500000	1.029000   
477.000000	1.045000   
477.500000	1.037000   
478.000000	1.201000   
478.500000	1.263000   
479.000000	1.167000   
479.500000	1.302000   
480.000000	1.161000   
480.500000	1.220000   
481.000000	1.135000   
481.500000	1.018000   
482.000000	1.132000   
482.500000	1.272000   
483.000000	1.201000   
483.500000	1.182000   
484.000000	1.302000   
484.500000	1.259000   
485.000000	1.143000   
485.500000	1.118000   
486.000000	1.310000   
486.500000	1.208000   
487.000000	1.250000   
487.500000	1.344000   
488.000000	1.267000   
488.500000	1.276000   
489.000000	1.334000   
489.500000	1.209000   
490.000000	1.303000   
490.500000	1.209000   
491.000000	1.222000   
491.500000	1.170000   
492.000000	1.354000   
492.500000	1.205000   
493.000000	1.162000   
493.500000	1.147000   
494.000000	1.310000   
494.500000	1.281000   
495.000000	1.174000   
495.500000	1.344000   
496.000000	1.220000   
496.500000	1.431000   
497.000000	1.267000   
497.500000	1.341000   
498.000000	1.440000   
498.500000	1.392000   
499.000000	1.296000   
499.500000	1.222000   
500.000000	1.274000   
500.500000	1.237000   
501.000000	1.396000   
501.500000	1.271000   
502.000000	1.467000   
502.500000	1.392000   
503.000000	1.276000   
503.500000	1.507000   
504.000000	1.256000   
504.500000	1.141000   
505.000000	1.283000   
505.500000	1.260000   
506.000000	1.267000   
506.500000	1.374000   
507.000000	1.303000   
507.500000	1.350000   
508.000000	1.214000   
508.500000	1.246000   
509.000000	1.384000   
509.500000	1.366000   
510.000000	1.291000   
510.500000	1.246000   
511.000000	1.383000   
511.500000	1.411000   
512.000000	1.266000   
512.500000	1.170000   
513.000000	1.341000   
513.500000	1.428000   
514.000000	1.500000   
514.500000	1.300000   
515.000000	1.314000   
515.500000	1.463000   
516.000000	1.299000   
516.500000	1.293000   
517.000000	1.292000   
517.500000	1.297000   
518.000000	1.472000   
518.500000	1.575000   
519.000000	1.329000   
519.500000	1.446000   
520.000000	1.506000   
520.500000	1.540000   
521.000000	1.705000   
521.500000	1.863000   
522.000000	2.030000   
522.500000	2.375000   
523.000000	2.779000   
523.500000	3.357000   
524.000000	4.250000   
524.500000	5.002000   
525.000000	6.431000   
525.500000	7.807000   
526.000000	10.030000  
526.500000	13.119000  
527.000000	15.567000  
527.500000	18.635000  
528.000000	22.255000  
528.500000	26.995000  
529.000000	32.870000  
529.500000	39.311000  
530.000000	45.662000  
530.500000	53.586000  
531.000000	63.823000  
531.500000	73.491000  
532.000000	83.361999  
532.500000	94.403000  
533.000000	106.629000 
533.500000	118.836000 
534.000000	128.703000 
534.500000	141.623000 
535.000000	155.368000 
535.500000	167.141000 
536.000000	179.620000 
536.500000	190.368000 
537.000000	201.316000 
537.500000	212.405000 
538.000000	222.893000 
538.500000	232.162000 
539.000000	239.736000 
539.500000	246.292000 
540.000000	250.826000 
540.500000	252.442000 
541.000000	252.946000 
541.500000	254.326000 
542.000000	251.776000 
542.500000	244.552000 
543.000000	238.633000 
543.500000	233.803000 
544.000000	227.706000 
544.500000	216.160000 
545.000000	206.731000 
545.500000	195.980000 
546.000000	183.504000 
546.500000	169.409000 
547.000000	160.538000 
547.500000	145.490000 
548.000000	136.306000 
548.500000	122.670000 

