PE FL                   SPECTRUM    ASCII       PEDS        1.60        
  -1
0155FA~1.SP
19/01/24
13:01:06.00
19/01/24
13:01:06.00


548.500000
1









LS45
260.00
10.00
10.00
SCAN
1
16
100
100
0
600
0
1
0
1
7
ON
550 545 
0 0 0
#HDR
-1
-1
#GR
NM
INT 
0.00002384185791015625
0.0
230.000000
0.500000
638
8
999.999000
1.519000
#DATA
230.000000	1.757000   
230.500000	1.786000   
231.000000	1.519000   
231.500000	1.762000   
232.000000	1.726000   
232.500000	1.847000   
233.000000	1.884000   
233.500000	1.866000   
234.000000	2.035000   
234.500000	2.141000   
235.000000	1.810000   
235.500000	1.907000   
236.000000	2.101000   
236.500000	2.122000   
237.000000	2.078000   
237.500000	2.144000   
238.000000	2.397000   
238.500000	3.101000   
239.000000	3.222000   
239.500000	3.544000   
240.000000	3.991000   
240.500000	4.600000   
241.000000	5.546000   
241.500000	6.565000   
242.000000	7.905000   
242.500000	9.435000   
243.000000	11.780000  
243.500000	15.064000  
244.000000	18.613000  
244.500000	21.780000  
245.000000	26.144000  
245.500000	33.434000  
246.000000	41.100000  
246.500000	48.332000  
247.000000	57.502000  
247.500000	72.242000  
248.000000	85.524000  
248.500000	104.293000 
249.000000	118.875000 
249.500000	138.866000 
250.000000	159.089000 
250.500000	185.925000 
251.000000	207.013000 
251.500000	228.171000 
252.000000	254.166000 
252.500000	277.716000 
253.000000	302.948000 
253.500000	322.660000 
254.000000	353.046000 
254.500000	374.930000 
255.000000	401.012000 
255.500000	424.312000 
256.000000	442.037000 
256.500000	461.861000 
257.000000	487.056000 
257.500000	500.083000 
258.000000	511.231000 
258.500000	523.260000 
259.000000	526.777000 
259.500000	526.950000 
260.000000	526.013000 
260.500000	516.715000 
261.000000	506.666000 
261.500000	494.036000 
262.000000	481.048000 
262.500000	462.595000 
263.000000	446.310000 
263.500000	424.185000 
264.000000	405.460000 
264.500000	386.661000 
265.000000	356.917000 
265.500000	335.412000 
266.000000	305.529000 
266.500000	286.892000 
267.000000	258.952000 
267.500000	233.335000 
268.000000	203.572000 
268.500000	186.404000 
269.000000	164.408000 
269.500000	145.861000 
270.000000	128.597000 
270.500000	113.167000 
271.000000	102.728000 
271.500000	86.918000  
272.000000	79.908000  
272.500000	73.162000  
273.000000	68.483999  
273.500000	62.284000  
274.000000	60.104000  
274.500000	58.649000  
275.000000	57.536000  
275.500000	57.109000  
276.000000	57.271000  
276.500000	59.603000  
277.000000	60.736000  
277.500000	63.138000  
278.000000	66.005000  
278.500000	70.009000  
279.000000	73.950999  
279.500000	74.060000  
280.000000	78.059000  
280.500000	81.727999  
281.000000	86.417000  
281.500000	88.709999  
282.000000	89.881000  
282.500000	93.736999  
283.000000	95.340000  
283.500000	96.611999  
284.000000	97.151000  
284.500000	97.400000  
285.000000	96.443000  
285.500000	95.910000  
286.000000	95.407000  
286.500000	93.267000  
287.000000	91.720000  
287.500000	89.825000  
288.000000	86.733000  
288.500000	82.849000  
289.000000	81.322000  
289.500000	80.427000  
290.000000	75.256000  
290.500000	72.656000  
291.000000	68.861000  
291.500000	64.708000  
292.000000	62.494000  
292.500000	56.592000  
293.000000	54.977000  
293.500000	50.642000  
294.000000	50.767000  
294.500000	47.026000  
295.000000	44.539000  
295.500000	40.923000  
296.000000	39.767000  
296.500000	37.411000  
297.000000	34.647000  
297.500000	33.802000  
298.000000	34.000000  
298.500000	34.345000  
299.000000	33.044000  
299.500000	31.294000  
300.000000	30.198000  
300.500000	29.401000  
301.000000	29.862000  
301.500000	30.144000  
302.000000	30.292000  
302.500000	28.580000  
303.000000	29.930000  
303.500000	30.105000  
304.000000	31.110000  
304.500000	30.483000  
305.000000	30.612000  
305.500000	32.164000  
306.000000	32.815000  
306.500000	33.623000  
307.000000	33.175000  
307.500000	34.092000  
308.000000	35.456000  
308.500000	36.572000  
309.000000	36.509000  
309.500000	37.947000  
310.000000	38.831000  
310.500000	40.839000  
311.000000	39.244000  
311.500000	40.218000  
312.000000	42.064000  
312.500000	43.460000  
313.000000	44.578000  
313.500000	44.182000  
314.000000	44.403000  
314.500000	47.005000  
315.000000	49.567000  
315.500000	50.555000  
316.000000	50.603000  
316.500000	49.948000  
317.000000	50.413000  
317.500000	52.795000  
318.000000	54.206000  
318.500000	54.160000  
319.000000	56.303000  
319.500000	56.659000  
320.000000	58.892000  
320.500000	59.378000  
321.000000	60.113000  
321.500000	63.509000  
322.000000	64.450000  
322.500000	64.677000  
323.000000	69.220000  
323.500000	66.973000  
324.000000	68.413000  
324.500000	71.307000  
325.000000	72.230999  
325.500000	74.438000  
326.000000	75.130000  
326.500000	75.864999  
327.000000	79.236999  
327.500000	80.630000  
328.000000	82.175000  
328.500000	82.447000  
329.000000	85.721999  
329.500000	85.822999  
330.000000	86.533000  
330.500000	89.400000  
331.000000	87.805000  
331.500000	92.395000  
332.000000	95.194999  
332.500000	96.376000  
333.000000	95.739000  
333.500000	96.936000  
334.000000	100.165000 
334.500000	100.548000 
335.000000	103.085000 
335.500000	104.725000 
336.000000	107.024000 
336.500000	105.827000 
337.000000	107.234000 
337.500000	108.328000 
338.000000	108.403000 
338.500000	110.942000 
339.000000	113.201000 
339.500000	113.871000 
340.000000	115.385000 
340.500000	114.617000 
341.000000	115.777000 
341.500000	117.573000 
342.000000	118.394000 
342.500000	119.048000 
343.000000	119.888000 
343.500000	122.402000 
344.000000	122.293000 
344.500000	120.903000 
345.000000	122.642000 
345.500000	123.992000 
346.000000	126.347000 
346.500000	126.588000 
347.000000	126.639000 
347.500000	126.999000 
348.000000	127.958000 
348.500000	127.301000 
349.000000	127.247000 
349.500000	129.475000 
350.000000	130.387000 
350.500000	131.132000 
351.000000	132.979000 
351.500000	132.804000 
352.000000	131.981000 
352.500000	131.468000 
353.000000	130.978000 
353.500000	134.140000 
354.000000	133.176000 
354.500000	134.106000 
355.000000	132.566000 
355.500000	134.484000 
356.000000	135.534000 
356.500000	134.817000 
357.000000	133.648000 
357.500000	133.908000 
358.000000	133.346000 
358.500000	131.273000 
359.000000	132.281000 
359.500000	132.518000 
360.000000	129.978000 
360.500000	132.728000 
361.000000	133.288000 
361.500000	130.809000 
362.000000	129.591000 
362.500000	129.927000 
363.000000	129.040000 
363.500000	127.716000 
364.000000	128.089000 
364.500000	127.348000 
365.000000	126.011000 
365.500000	126.621000 
366.000000	125.443000 
366.500000	126.116000 
367.000000	124.354000 
367.500000	122.883000 
368.000000	123.184000 
368.500000	126.253000 
369.000000	126.731000 
369.500000	122.117000 
370.000000	122.835000 
370.500000	123.845000 
371.000000	122.226000 
371.500000	121.032000 
372.000000	121.291000 
372.500000	120.731000 
373.000000	122.024000 
373.500000	120.159000 
374.000000	120.961000 
374.500000	120.709000 
375.000000	117.672000 
375.500000	122.726000 
376.000000	120.664000 
376.500000	120.146000 
377.000000	118.943000 
377.500000	119.017000 
378.000000	118.510000 
378.500000	119.715000 
379.000000	116.244000 
379.500000	116.783000 
380.000000	116.702000 
380.500000	115.939000 
381.000000	112.525000 
381.500000	112.498000 
382.000000	113.453000 
382.500000	112.895000 
383.000000	112.057000 
383.500000	112.278000 
384.000000	111.374000 
384.500000	110.686000 
385.000000	110.998000 
385.500000	111.941000 
386.000000	108.012000 
386.500000	108.991000 
387.000000	107.387000 
387.500000	103.748000 
388.000000	105.325000 
388.500000	105.967000 
389.000000	106.183000 
389.500000	105.709000 
390.000000	103.921000 
390.500000	103.380000 
391.000000	104.250000 
391.500000	102.019000 
392.000000	101.571000 
392.500000	103.588000 
393.000000	98.890000  
393.500000	100.205000 
394.000000	99.922000  
394.500000	98.078000  
395.000000	99.521000  
395.500000	99.364999  
396.000000	97.430000  
396.500000	97.915000  
397.000000	98.705000  
397.500000	96.983999  
398.000000	95.098000  
398.500000	95.086000  
399.000000	96.040000  
399.500000	96.364999  
400.000000	96.458000  
400.500000	96.437000  
401.000000	96.548000  
401.500000	97.220000  
402.000000	98.572000  
402.500000	96.023000  
403.000000	96.462000  
403.500000	95.291000  
404.000000	95.206000  
404.500000	94.160000  
405.000000	94.688000  
405.500000	93.180000  
406.000000	95.473000  
406.500000	95.312000  
407.000000	93.500000  
407.500000	93.268000  
408.000000	94.861000  
408.500000	95.684000  
409.000000	94.235000  
409.500000	94.381000  
410.000000	95.998000  
410.500000	95.712000  
411.000000	96.424000  
411.500000	94.813999  
412.000000	95.751000  
412.500000	96.152000  
413.000000	99.399000  
413.500000	96.929000  
414.000000	95.897000  
414.500000	98.211000  
415.000000	97.420000  
415.500000	96.595000  
416.000000	97.851000  
416.500000	99.776000  
417.000000	101.013000 
417.500000	101.704000 
418.000000	100.944000 
418.500000	100.310000 
419.000000	100.324000 
419.500000	100.352000 
420.000000	100.896000 
420.500000	103.654000 
421.000000	103.535000 
421.500000	101.393000 
422.000000	106.610000 
422.500000	104.018000 
423.000000	106.781000 
423.500000	107.603000 
424.000000	106.544000 
424.500000	108.582000 
425.000000	107.025000 
425.500000	109.441000 
426.000000	113.488000 
426.500000	109.637000 
427.000000	112.417000 
427.500000	109.956000 
428.000000	112.630000 
428.500000	113.585000 
429.000000	114.574000 
429.500000	113.033000 
430.000000	117.152000 
430.500000	115.821000 
431.000000	116.050000 
431.500000	117.997000 
432.000000	119.481000 
432.500000	120.770000 
433.000000	120.019000 
433.500000	120.481000 
434.000000	123.589000 
434.500000	122.858000 
435.000000	123.029000 
435.500000	125.330000 
436.000000	124.840000 
436.500000	124.321000 
437.000000	123.787000 
437.500000	128.286000 
438.000000	128.549000 
438.500000	127.928000 
439.000000	128.445000 
439.500000	128.600000 
440.000000	127.960000 
440.500000	129.346000 
441.000000	129.835000 
441.500000	130.311000 
442.000000	131.985000 
442.500000	131.061000 
443.000000	130.379000 
443.500000	131.576000 
444.000000	131.644000 
444.500000	129.381000 
445.000000	130.157000 
445.500000	131.521000 
446.000000	132.134000 
446.500000	129.588000 
447.000000	130.212000 
447.500000	131.139000 
448.000000	131.072000 
448.500000	132.679000 
449.000000	131.741000 
449.500000	130.771000 
450.000000	130.748000 
450.500000	130.297000 
451.000000	130.699000 
451.500000	131.207000 
452.000000	129.694000 
452.500000	129.480000 
453.000000	127.367000 
453.500000	130.827000 
454.000000	130.917000 
454.500000	129.427000 
455.000000	128.878000 
455.500000	128.341000 
456.000000	129.690000 
456.500000	126.809000 
457.000000	126.565000 
457.500000	125.993000 
458.000000	124.958000 
458.500000	126.484000 
459.000000	125.479000 
459.500000	125.802000 
460.000000	125.232000 
460.500000	125.450000 
461.000000	125.568000 
461.500000	122.961000 
462.000000	121.003000 
462.500000	122.566000 
463.000000	122.051000 
463.500000	120.855000 
464.000000	120.448000 
464.500000	118.385000 
465.000000	118.845000 
465.500000	121.136000 
466.000000	118.457000 
466.500000	119.527000 
467.000000	118.497000 
467.500000	117.866000 
468.000000	120.135000 
468.500000	117.704000 
469.000000	115.004000 
469.500000	117.037000 
470.000000	118.755000 
470.500000	116.334000 
471.000000	118.040000 
471.500000	115.899000 
472.000000	116.717000 
472.500000	113.801000 
473.000000	113.515000 
473.500000	114.223000 
474.000000	112.365000 
474.500000	112.548000 
475.000000	113.384000 
475.500000	114.605000 
476.000000	112.902000 
476.500000	112.957000 
477.000000	113.148000 
477.500000	112.861000 
478.000000	111.672000 
478.500000	113.522000 
479.000000	112.183000 
479.500000	112.764000 
480.000000	115.402000 
480.500000	115.209000 
481.000000	114.241000 
481.500000	113.731000 
482.000000	113.442000 
482.500000	113.917000 
483.000000	113.464000 
483.500000	112.798000 
484.000000	112.667000 
484.500000	113.852000 
485.000000	113.390000 
485.500000	114.728000 
486.000000	113.670000 
486.500000	114.681000 
487.000000	115.171000 
487.500000	114.315000 
488.000000	114.617000 
488.500000	114.869000 
489.000000	115.322000 
489.500000	116.539000 
490.000000	115.409000 
490.500000	117.045000 
491.000000	116.731000 
491.500000	120.251000 
492.000000	120.652000 
492.500000	121.043000 
493.000000	126.680000 
493.500000	130.502000 
494.000000	132.767000 
494.500000	139.507000 
495.000000	140.850000 
495.500000	148.685000 
496.000000	156.569000 
496.500000	164.256000 
497.000000	172.814000 
497.500000	183.981000 
498.000000	195.456000 
498.500000	211.464000 
499.000000	220.252000 
499.500000	235.754000 
500.000000	252.924000 
500.500000	271.450000 
501.000000	293.765000 
501.500000	321.014000 
502.000000	348.537000 
502.500000	373.338000 
503.000000	398.622000 
503.500000	418.067000 
504.000000	458.727000 
504.500000	487.284000 
505.000000	527.664000 
505.500000	558.045000 
506.000000	593.696000 
506.500000	630.042000 
507.000000	678.539000 
507.500000	728.368000 
508.000000	774.479000 
508.500000	896.195000 
509.000000	905.671000 
509.500000	999.999000 
510.000000	999.999000 
510.500000	999.999000 
511.000000	999.999000 
511.500000	999.999000 
512.000000	999.999000 
512.500000	999.999000 
513.000000	999.999000 
513.500000	999.999000 
514.000000	999.999000 
514.500000	999.999000 
515.000000	999.999000 
515.500000	999.999000 
516.000000	999.999000 
516.500000	999.999000 
517.000000	999.999000 
517.500000	999.999000 
518.000000	999.999000 
518.500000	999.999000 
519.000000	999.999000 
519.500000	999.999000 
520.000000	999.999000 
520.500000	999.999000 
521.000000	999.999000 
521.500000	999.999000 
522.000000	999.999000 
522.500000	999.999000 
523.000000	999.999000 
523.500000	999.999000 
524.000000	999.999000 
524.500000	999.999000 
525.000000	999.999000 
525.500000	999.999000 
526.000000	999.999000 
526.500000	999.999000 
527.000000	999.999000 
527.500000	999.999000 
528.000000	999.999000 
528.500000	999.999000 
529.000000	999.999000 
529.500000	999.999000 
530.000000	999.999000 
530.500000	930.232999 
531.000000	918.314000 
531.500000	857.679000 
532.000000	794.348000 
532.500000	739.600000 
533.000000	694.150000 
533.500000	645.016000 
534.000000	603.850000 
534.500000	565.870000 
535.000000	523.985000 
535.500000	470.191000 
536.000000	437.516000 
536.500000	403.431000 
537.000000	373.848000 
537.500000	333.733000 
538.000000	302.390000 
538.500000	276.446000 
539.000000	255.076000 
539.500000	228.928000 
540.000000	207.397000 
540.500000	187.418000 
541.000000	172.073000 
541.500000	157.626000 
542.000000	143.757000 
542.500000	127.871000 
543.000000	120.130000 
543.500000	110.427000 
544.000000	101.607000 
544.500000	93.188999  
545.000000	90.840000  
545.500000	85.516000  
546.000000	81.414000  
546.500000	77.313999  
547.000000	74.444000  
547.500000	73.575999  
548.000000	73.819999  
548.500000	73.599000  

