PE FL                   SPECTRUM    ASCII       PEDS        1.60        
  -1
0124SC~4.SP
19/01/24
13:41:49.00
19/01/24
13:41:49.00


548.500000
1









LS45
530.00
10.00
10.00
SCAN
1
16
100
100
0
600
0
1
0
1
7
ON
550 545 
0 0 0
#HDR
-1
-1
#GR
NM
INT 
0.00002384185791015625
0.0
230.000000
0.500000
638
8
307.950000
0.006000
#DATA
230.000000	0.049000   
230.500000	0.006000   
231.000000	0.026000   
231.500000	0.029000   
232.000000	0.040000   
232.500000	0.042000   
233.000000	0.046000   
233.500000	0.038000   
234.000000	0.051000   
234.500000	0.048000   
235.000000	0.027000   
235.500000	0.027000   
236.000000	0.035000   
236.500000	0.073000   
237.000000	0.085000   
237.500000	0.042000   
238.000000	0.012000   
238.500000	0.052000   
239.000000	0.043000   
239.500000	0.050000   
240.000000	0.036000   
240.500000	0.037000   
241.000000	0.060000   
241.500000	0.032000   
242.000000	0.059000   
242.500000	0.076000   
243.000000	0.051000   
243.500000	0.036000   
244.000000	0.046000   
244.500000	0.063000   
245.000000	0.063000   
245.500000	0.086999   
246.000000	0.063000   
246.500000	0.078000   
247.000000	0.118000   
247.500000	0.122000   
248.000000	0.171000   
248.500000	0.198000   
249.000000	0.253000   
249.500000	0.327000   
250.000000	0.380000   
250.500000	0.581000   
251.000000	0.687999   
251.500000	0.883000   
252.000000	0.879000   
252.500000	1.139000   
253.000000	1.326000   
253.500000	1.480000   
254.000000	1.629000   
254.500000	1.783000   
255.000000	2.238000   
255.500000	2.474000   
256.000000	2.699000   
256.500000	2.775000   
257.000000	3.520000   
257.500000	3.544000   
258.000000	3.724000   
258.500000	3.950000   
259.000000	4.261000   
259.500000	4.370000   
260.000000	4.278000   
260.500000	4.431000   
261.000000	4.509000   
261.500000	4.956000   
262.000000	4.788000   
262.500000	4.789000   
263.000000	4.823000   
263.500000	4.694000   
264.000000	4.310000   
264.500000	4.276000   
265.000000	4.154000   
265.500000	3.905000   
266.000000	3.716000   
266.500000	3.488000   
267.000000	3.318000   
267.500000	3.194000   
268.000000	2.811000   
268.500000	2.443000   
269.000000	2.161000   
269.500000	1.867000   
270.000000	1.942000   
270.500000	1.921000   
271.000000	1.429000   
271.500000	0.960000   
272.000000	0.945000   
272.500000	0.753000   
273.000000	0.728000   
273.500000	0.669000   
274.000000	0.507000   
274.500000	0.448000   
275.000000	0.389000   
275.500000	0.358000   
276.000000	0.338000   
276.500000	0.286000   
277.000000	0.344000   
277.500000	0.294000   
278.000000	0.423000   
278.500000	0.362000   
279.000000	0.387000   
279.500000	0.407000   
280.000000	0.464000   
280.500000	0.399000   
281.000000	0.489000   
281.500000	0.525000   
282.000000	0.593000   
282.500000	0.656000   
283.000000	0.695000   
283.500000	0.642000   
284.000000	0.728000   
284.500000	0.884000   
285.000000	0.860000   
285.500000	0.828000   
286.000000	0.888000   
286.500000	0.922000   
287.000000	0.833000   
287.500000	0.858000   
288.000000	1.124000   
288.500000	0.898000   
289.000000	0.848000   
289.500000	0.903000   
290.000000	1.066000   
290.500000	0.854000   
291.000000	0.908000   
291.500000	0.897000   
292.000000	0.745000   
292.500000	0.688999   
293.000000	0.793000   
293.500000	0.806000   
294.000000	0.707000   
294.500000	0.687999   
295.000000	0.684000   
295.500000	0.628000   
296.000000	0.573000   
296.500000	0.539000   
297.000000	0.523000   
297.500000	0.449000   
298.000000	0.504000   
298.500000	0.478000   
299.000000	0.467000   
299.500000	0.396000   
300.000000	0.441000   
300.500000	0.374000   
301.000000	0.349000   
301.500000	0.342000   
302.000000	0.341000   
302.500000	0.346000   
303.000000	0.296000   
303.500000	0.344000   
304.000000	0.340000   
304.500000	0.429000   
305.000000	0.366000   
305.500000	0.451000   
306.000000	0.398000   
306.500000	0.425000   
307.000000	0.438000   
307.500000	0.446000   
308.000000	0.427000   
308.500000	0.381000   
309.000000	0.484000   
309.500000	0.475000   
310.000000	0.465000   
310.500000	0.454000   
311.000000	0.299000   
311.500000	0.431000   
312.000000	0.436000   
312.500000	0.494000   
313.000000	0.540000   
313.500000	0.523000   
314.000000	0.624000   
314.500000	0.451000   
315.000000	0.502000   
315.500000	0.500000   
316.000000	0.519000   
316.500000	0.714000   
317.000000	0.609000   
317.500000	0.682000   
318.000000	0.623000   
318.500000	0.596000   
319.000000	0.592000   
319.500000	0.571000   
320.000000	0.582000   
320.500000	0.661000   
321.000000	0.569000   
321.500000	0.701000   
322.000000	0.664000   
322.500000	0.703000   
323.000000	0.716000   
323.500000	0.817999   
324.000000	0.733000   
324.500000	0.698000   
325.000000	0.760000   
325.500000	0.755000   
326.000000	0.733000   
326.500000	0.812000   
327.000000	0.878000   
327.500000	0.889000   
328.000000	0.906000   
328.500000	0.891000   
329.000000	0.844000   
329.500000	0.901000   
330.000000	0.993000   
330.500000	1.004000   
331.000000	0.844000   
331.500000	0.864000   
332.000000	0.933000   
332.500000	0.890000   
333.000000	0.899000   
333.500000	1.071000   
334.000000	1.014000   
334.500000	1.080000   
335.000000	1.108000   
335.500000	1.096000   
336.000000	0.974000   
336.500000	1.108000   
337.000000	1.155000   
337.500000	1.096000   
338.000000	1.085000   
338.500000	1.172000   
339.000000	1.243000   
339.500000	1.234000   
340.000000	1.221000   
340.500000	1.226000   
341.000000	1.260000   
341.500000	1.229000   
342.000000	1.358000   
342.500000	1.230000   
343.000000	1.224000   
343.500000	1.219000   
344.000000	1.314000   
344.500000	1.184000   
345.000000	1.183000   
345.500000	1.325000   
346.000000	1.261000   
346.500000	1.202000   
347.000000	1.278000   
347.500000	1.324000   
348.000000	1.202000   
348.500000	1.506000   
349.000000	1.456000   
349.500000	1.343000   
350.000000	1.338000   
350.500000	1.206000   
351.000000	1.397000   
351.500000	1.406000   
352.000000	1.415000   
352.500000	1.480000   
353.000000	1.338000   
353.500000	1.527000   
354.000000	1.449000   
354.500000	1.366000   
355.000000	1.325000   
355.500000	1.286000   
356.000000	1.405000   
356.500000	1.354000   
357.000000	1.487000   
357.500000	1.533000   
358.000000	1.381000   
358.500000	1.256000   
359.000000	1.249000   
359.500000	1.402000   
360.000000	1.333000   
360.500000	1.285000   
361.000000	1.318000   
361.500000	1.306000   
362.000000	1.390000   
362.500000	1.282000   
363.000000	1.200000   
363.500000	1.162000   
364.000000	1.341000   
364.500000	1.450000   
365.000000	1.353000   
365.500000	1.430000   
366.000000	1.344000   
366.500000	1.368000   
367.000000	1.409000   
367.500000	1.449000   
368.000000	1.257000   
368.500000	1.135000   
369.000000	1.192000   
369.500000	1.297000   
370.000000	1.550000   
370.500000	1.366000   
371.000000	1.226000   
371.500000	1.226000   
372.000000	1.218000   
372.500000	1.334000   
373.000000	1.368000   
373.500000	1.327000   
374.000000	1.298000   
374.500000	1.456000   
375.000000	1.343000   
375.500000	1.419000   
376.000000	1.231000   
376.500000	1.295000   
377.000000	1.412000   
377.500000	1.338000   
378.000000	1.275000   
378.500000	1.364000   
379.000000	1.262000   
379.500000	1.168000   
380.000000	1.245000   
380.500000	1.296000   
381.000000	1.254000   
381.500000	1.310000   
382.000000	1.222000   
382.500000	1.250000   
383.000000	1.263000   
383.500000	1.246000   
384.000000	1.218000   
384.500000	1.196000   
385.000000	1.177000   
385.500000	1.103000   
386.000000	1.294000   
386.500000	1.243000   
387.000000	1.153000   
387.500000	1.212000   
388.000000	1.237000   
388.500000	1.094000   
389.000000	1.129000   
389.500000	1.095000   
390.000000	1.063000   
390.500000	1.170000   
391.000000	1.095000   
391.500000	1.262000   
392.000000	1.298000   
392.500000	1.281000   
393.000000	1.251000   
393.500000	1.070000   
394.000000	1.091000   
394.500000	1.147000   
395.000000	1.144000   
395.500000	1.177000   
396.000000	1.064000   
396.500000	1.034000   
397.000000	1.188000   
397.500000	1.091000   
398.000000	1.068000   
398.500000	1.002000   
399.000000	0.893000   
399.500000	1.077000   
400.000000	1.179000   
400.500000	1.149000   
401.000000	1.094000   
401.500000	0.982000   
402.000000	0.990000   
402.500000	1.084000   
403.000000	1.206000   
403.500000	1.035000   
404.000000	1.086000   
404.500000	1.113000   
405.000000	1.225000   
405.500000	1.056000   
406.000000	1.087000   
406.500000	1.145000   
407.000000	1.097000   
407.500000	1.056000   
408.000000	1.074000   
408.500000	1.131000   
409.000000	1.143000   
409.500000	1.123000   
410.000000	1.046000   
410.500000	1.194000   
411.000000	1.071000   
411.500000	0.966000   
412.000000	1.049000   
412.500000	0.992000   
413.000000	1.040000   
413.500000	1.123000   
414.000000	1.087000   
414.500000	1.009000   
415.000000	1.006000   
415.500000	0.971000   
416.000000	1.155000   
416.500000	1.025000   
417.000000	1.092000   
417.500000	1.087000   
418.000000	1.135000   
418.500000	1.087000   
419.000000	1.217000   
419.500000	1.022000   
420.000000	1.040000   
420.500000	1.250000   
421.000000	1.296000   
421.500000	1.109000   
422.000000	1.262000   
422.500000	1.205000   
423.000000	1.180000   
423.500000	1.183000   
424.000000	1.248000   
424.500000	1.102000   
425.000000	1.098000   
425.500000	1.233000   
426.000000	1.251000   
426.500000	1.173000   
427.000000	1.205000   
427.500000	1.181000   
428.000000	1.056000   
428.500000	1.238000   
429.000000	1.328000   
429.500000	1.164000   
430.000000	1.183000   
430.500000	1.214000   
431.000000	1.055000   
431.500000	1.118000   
432.000000	1.211000   
432.500000	1.220000   
433.000000	1.093000   
433.500000	1.224000   
434.000000	1.272000   
434.500000	1.223000   
435.000000	1.358000   
435.500000	1.242000   
436.000000	1.326000   
436.500000	1.430000   
437.000000	1.245000   
437.500000	1.293000   
438.000000	1.340000   
438.500000	1.198000   
439.000000	1.269000   
439.500000	1.437000   
440.000000	1.345000   
440.500000	1.345000   
441.000000	1.309000   
441.500000	1.367000   
442.000000	1.435000   
442.500000	1.480000   
443.000000	1.336000   
443.500000	1.293000   
444.000000	1.360000   
444.500000	1.265000   
445.000000	1.370000   
445.500000	1.288000   
446.000000	1.342000   
446.500000	1.442000   
447.000000	1.300000   
447.500000	1.323000   
448.000000	1.490000   
448.500000	1.409000   
449.000000	1.323000   
449.500000	1.282000   
450.000000	1.365000   
450.500000	1.264000   
451.000000	1.314000   
451.500000	1.374000   
452.000000	1.402000   
452.500000	1.345000   
453.000000	1.397000   
453.500000	1.371000   
454.000000	1.294000   
454.500000	1.339000   
455.000000	1.189000   
455.500000	1.299000   
456.000000	1.380000   
456.500000	1.332000   
457.000000	1.409000   
457.500000	1.409000   
458.000000	1.363000   
458.500000	1.435000   
459.000000	1.316000   
459.500000	1.289000   
460.000000	1.398000   
460.500000	1.338000   
461.000000	1.301000   
461.500000	1.242000   
462.000000	1.458000   
462.500000	1.328000   
463.000000	1.344000   
463.500000	1.321000   
464.000000	1.381000   
464.500000	1.370000   
465.000000	1.341000   
465.500000	1.156000   
466.000000	1.206000   
466.500000	1.410000   
467.000000	1.357000   
467.500000	1.338000   
468.000000	1.173000   
468.500000	1.226000   
469.000000	1.344000   
469.500000	1.322000   
470.000000	1.380000   
470.500000	1.337000   
471.000000	1.391000   
471.500000	1.413000   
472.000000	1.280000   
472.500000	1.322000   
473.000000	1.412000   
473.500000	1.524000   
474.000000	1.430000   
474.500000	1.188000   
475.000000	1.409000   
475.500000	1.496000   
476.000000	1.502000   
476.500000	1.439000   
477.000000	1.364000   
477.500000	1.278000   
478.000000	1.470000   
478.500000	1.492000   
479.000000	1.454000   
479.500000	1.636000   
480.000000	1.727000   
480.500000	1.422000   
481.000000	1.595000   
481.500000	1.453000   
482.000000	1.557000   
482.500000	1.571000   
483.000000	1.694000   
483.500000	1.750000   
484.000000	1.648000   
484.500000	1.674000   
485.000000	1.586000   
485.500000	1.475000   
486.000000	1.630000   
486.500000	1.836000   
487.000000	1.807000   
487.500000	1.684000   
488.000000	1.674000   
488.500000	1.722000   
489.000000	1.640000   
489.500000	1.784000   
490.000000	1.759000   
490.500000	1.685000   
491.000000	1.564000   
491.500000	1.625000   
492.000000	1.659000   
492.500000	1.718000   
493.000000	1.841000   
493.500000	1.765000   
494.000000	1.767000   
494.500000	1.783000   
495.000000	1.685000   
495.500000	1.576000   
496.000000	1.498000   
496.500000	1.752000   
497.000000	1.685000   
497.500000	1.485000   
498.000000	1.552000   
498.500000	1.666000   
499.000000	1.774000   
499.500000	1.705000   
500.000000	1.527000   
500.500000	1.633000   
501.000000	1.689000   
501.500000	1.870000   
502.000000	1.781000   
502.500000	1.818000   
503.000000	1.869000   
503.500000	1.799000   
504.000000	1.705000   
504.500000	1.869000   
505.000000	2.030000   
505.500000	1.765000   
506.000000	1.884000   
506.500000	2.092000   
507.000000	2.345000   
507.500000	2.604000   
508.000000	2.992000   
508.500000	3.521000   
509.000000	4.587000   
509.500000	5.473000   
510.000000	6.776000   
510.500000	8.673000   
511.000000	10.493000  
511.500000	12.499000  
512.000000	15.474000  
512.500000	19.257000  
513.000000	23.442000  
513.500000	27.980000  
514.000000	34.182000  
514.500000	39.483000  
515.000000	49.492000  
515.500000	55.487000  
516.000000	65.251000  
516.500000	74.624000  
517.000000	88.938000  
517.500000	98.435000  
518.000000	113.795000 
518.500000	125.125000 
519.000000	141.183000 
519.500000	155.785000 
520.000000	168.882000 
520.500000	182.465000 
521.000000	197.116000 
521.500000	209.317000 
522.000000	227.100000 
522.500000	238.102000 
523.000000	252.119000 
523.500000	261.245000 
524.000000	277.658000 
524.500000	281.885000 
525.000000	292.408000 
525.500000	299.662000 
526.000000	303.603000 
526.500000	304.299000 
527.000000	307.950000 
527.500000	307.406000 
528.000000	304.977000 
528.500000	300.208000 
529.000000	292.236000 
529.500000	281.693000 
530.000000	273.074000 
530.500000	262.087000 
531.000000	248.589000 
531.500000	234.472000 
532.000000	220.740000 
532.500000	207.336000 
533.000000	187.078000 
533.500000	174.721000 
534.000000	163.031000 
534.500000	147.196000 
535.000000	131.848000 
535.500000	114.722000 
536.000000	100.342000 
536.500000	87.720000  
537.000000	76.774000  
537.500000	63.741000  
538.000000	52.557000  
538.500000	43.099000  
539.000000	35.972000  
539.500000	27.842000  
540.000000	21.974000  
540.500000	18.182000  
541.000000	14.829000  
541.500000	11.700000  
542.000000	9.573000   
542.500000	7.035000   
543.000000	5.753000   
543.500000	4.650000   
544.000000	3.676000   
544.500000	2.796000   
545.000000	2.309000   
545.500000	1.910000   
546.000000	1.808000   
546.500000	1.583000   
547.000000	1.535000   
547.500000	1.498000   
548.000000	1.339000   
548.500000	1.329000   

