PE FL                   SPECTRUM    ASCII       PEDS        1.60        
  -1
013503~1.SP
19/01/24
13:26:44.00
19/01/24
13:26:44.00


548.500000
1









LS45
430.00
10.00
10.00
SCAN
1
16
100
100
0
600
0
1
0
1
7
ON
550 545 
0 0 0
#HDR
-1
-1
#GR
NM
INT 
0.00002384185791015625
0.0
230.000000
0.500000
638
8
999.999000
0.099000
#DATA
230.000000	0.148000   
230.500000	0.201000   
231.000000	0.130000   
231.500000	0.173000   
232.000000	0.231000   
232.500000	0.233000   
233.000000	0.156000   
233.500000	0.226000   
234.000000	0.144000   
234.500000	0.192000   
235.000000	0.217000   
235.500000	0.160000   
236.000000	0.179000   
236.500000	0.221000   
237.000000	0.196000   
237.500000	0.190000   
238.000000	0.226000   
238.500000	0.227000   
239.000000	0.168000   
239.500000	0.238000   
240.000000	0.242000   
240.500000	0.167000   
241.000000	0.174000   
241.500000	0.229000   
242.000000	0.226000   
242.500000	0.215000   
243.000000	0.207000   
243.500000	0.248000   
244.000000	0.217000   
244.500000	0.214000   
245.000000	0.212000   
245.500000	0.248000   
246.000000	0.206000   
246.500000	0.218000   
247.000000	0.227000   
247.500000	0.163000   
248.000000	0.213000   
248.500000	0.272000   
249.000000	0.304000   
249.500000	0.265000   
250.000000	0.231000   
250.500000	0.265000   
251.000000	0.281000   
251.500000	0.210000   
252.000000	0.257000   
252.500000	0.234000   
253.000000	0.224000   
253.500000	0.211000   
254.000000	0.181000   
254.500000	0.224000   
255.000000	0.235000   
255.500000	0.204000   
256.000000	0.208000   
256.500000	0.191000   
257.000000	0.183000   
257.500000	0.201000   
258.000000	0.198000   
258.500000	0.134000   
259.000000	0.186000   
259.500000	0.275000   
260.000000	0.292000   
260.500000	0.264000   
261.000000	0.175000   
261.500000	0.099000   
262.000000	0.144000   
262.500000	0.182000   
263.000000	0.215000   
263.500000	0.307000   
264.000000	0.249000   
264.500000	0.188000   
265.000000	0.203000   
265.500000	0.175000   
266.000000	0.241000   
266.500000	0.205000   
267.000000	0.236000   
267.500000	0.278000   
268.000000	0.178000   
268.500000	0.215000   
269.000000	0.189000   
269.500000	0.227000   
270.000000	0.238000   
270.500000	0.194000   
271.000000	0.234000   
271.500000	0.302000   
272.000000	0.268000   
272.500000	0.276000   
273.000000	0.230000   
273.500000	0.223000   
274.000000	0.215000   
274.500000	0.271000   
275.000000	0.214000   
275.500000	0.257000   
276.000000	0.185000   
276.500000	0.279000   
277.000000	0.223000   
277.500000	0.197000   
278.000000	0.182000   
278.500000	0.256000   
279.000000	0.292000   
279.500000	0.337000   
280.000000	0.317000   
280.500000	0.252000   
281.000000	0.231000   
281.500000	0.280000   
282.000000	0.309000   
282.500000	0.317000   
283.000000	0.274000   
283.500000	0.234000   
284.000000	0.210000   
284.500000	0.291000   
285.000000	0.246000   
285.500000	0.246000   
286.000000	0.293000   
286.500000	0.305000   
287.000000	0.359000   
287.500000	0.332000   
288.000000	0.259000   
288.500000	0.275000   
289.000000	0.258000   
289.500000	0.287000   
290.000000	0.269000   
290.500000	0.278000   
291.000000	0.235000   
291.500000	0.254000   
292.000000	0.255000   
292.500000	0.310000   
293.000000	0.278000   
293.500000	0.358000   
294.000000	0.347000   
294.500000	0.283000   
295.000000	0.319000   
295.500000	0.313000   
296.000000	0.339000   
296.500000	0.349000   
297.000000	0.338000   
297.500000	0.275000   
298.000000	0.333000   
298.500000	0.398000   
299.000000	0.378000   
299.500000	0.273000   
300.000000	0.284000   
300.500000	0.269000   
301.000000	0.323000   
301.500000	0.348000   
302.000000	0.379000   
302.500000	0.352000   
303.000000	0.381000   
303.500000	0.413000   
304.000000	0.360000   
304.500000	0.315000   
305.000000	0.297000   
305.500000	0.381000   
306.000000	0.402000   
306.500000	0.498000   
307.000000	0.376000   
307.500000	0.377000   
308.000000	0.507000   
308.500000	0.444000   
309.000000	0.422000   
309.500000	0.424000   
310.000000	0.471000   
310.500000	0.368000   
311.000000	0.465000   
311.500000	0.444000   
312.000000	0.366000   
312.500000	0.407000   
313.000000	0.362000   
313.500000	0.403000   
314.000000	0.399000   
314.500000	0.395000   
315.000000	0.485000   
315.500000	0.417000   
316.000000	0.441000   
316.500000	0.410000   
317.000000	0.368000   
317.500000	0.438000   
318.000000	0.497000   
318.500000	0.432000   
319.000000	0.425000   
319.500000	0.383000   
320.000000	0.550000   
320.500000	0.542000   
321.000000	0.466000   
321.500000	0.519000   
322.000000	0.439000   
322.500000	0.420000   
323.000000	0.448000   
323.500000	0.449000   
324.000000	0.429000   
324.500000	0.384000   
325.000000	0.440000   
325.500000	0.504000   
326.000000	0.558000   
326.500000	0.644000   
327.000000	0.616000   
327.500000	0.650000   
328.000000	0.646000   
328.500000	0.612000   
329.000000	0.595000   
329.500000	0.641000   
330.000000	0.673000   
330.500000	0.545000   
331.000000	0.676000   
331.500000	0.689999   
332.000000	0.626000   
332.500000	0.531000   
333.000000	0.566999   
333.500000	0.602000   
334.000000	0.590000   
334.500000	0.601000   
335.000000	0.628000   
335.500000	0.682000   
336.000000	0.681000   
336.500000	0.641000   
337.000000	0.675000   
337.500000	0.687000   
338.000000	0.526000   
338.500000	0.731000   
339.000000	0.851000   
339.500000	0.746000   
340.000000	0.697000   
340.500000	0.655000   
341.000000	0.640000   
341.500000	0.743000   
342.000000	0.839000   
342.500000	0.722000   
343.000000	0.803000   
343.500000	0.726000   
344.000000	0.716000   
344.500000	0.670000   
345.000000	0.698000   
345.500000	0.690999   
346.000000	0.720000   
346.500000	0.781000   
347.000000	0.814999   
347.500000	0.620000   
348.000000	0.699000   
348.500000	0.783000   
349.000000	0.768000   
349.500000	0.619000   
350.000000	0.771000   
350.500000	0.730000   
351.000000	0.751000   
351.500000	0.731000   
352.000000	0.748000   
352.500000	0.809000   
353.000000	0.812000   
353.500000	0.813999   
354.000000	0.854000   
354.500000	0.929000   
355.000000	0.777000   
355.500000	0.837000   
356.000000	0.926000   
356.500000	0.858000   
357.000000	0.766000   
357.500000	0.822000   
358.000000	0.808000   
358.500000	0.825000   
359.000000	0.911000   
359.500000	0.958000   
360.000000	0.976000   
360.500000	1.065000   
361.000000	0.898000   
361.500000	0.995000   
362.000000	0.876000   
362.500000	0.996000   
363.000000	1.018000   
363.500000	0.953000   
364.000000	1.040000   
364.500000	0.972000   
365.000000	1.085000   
365.500000	1.029000   
366.000000	1.001000   
366.500000	1.087000   
367.000000	1.159000   
367.500000	1.144000   
368.000000	1.128000   
368.500000	1.203000   
369.000000	1.070000   
369.500000	1.237000   
370.000000	1.280000   
370.500000	1.200000   
371.000000	1.182000   
371.500000	1.215000   
372.000000	1.323000   
372.500000	1.250000   
373.000000	1.406000   
373.500000	1.443000   
374.000000	1.331000   
374.500000	1.489000   
375.000000	1.521000   
375.500000	1.496000   
376.000000	1.598000   
376.500000	1.613000   
377.000000	1.414000   
377.500000	1.521000   
378.000000	1.702000   
378.500000	1.676000   
379.000000	1.665000   
379.500000	1.713000   
380.000000	1.689000   
380.500000	1.838000   
381.000000	1.925000   
381.500000	1.939000   
382.000000	1.799000   
382.500000	1.937000   
383.000000	1.969000   
383.500000	1.910000   
384.000000	1.842000   
384.500000	1.854000   
385.000000	2.074000   
385.500000	2.184000   
386.000000	2.250000   
386.500000	2.123000   
387.000000	2.281000   
387.500000	2.212000   
388.000000	2.254000   
388.500000	2.317000   
389.000000	2.271000   
389.500000	2.390000   
390.000000	2.449000   
390.500000	2.347000   
391.000000	2.378000   
391.500000	2.457000   
392.000000	2.427000   
392.500000	2.534000   
393.000000	2.759000   
393.500000	2.654000   
394.000000	2.650000   
394.500000	2.818000   
395.000000	3.030000   
395.500000	3.032000   
396.000000	3.058000   
396.500000	3.228000   
397.000000	3.227000   
397.500000	3.361000   
398.000000	3.273000   
398.500000	3.423000   
399.000000	3.467000   
399.500000	3.505000   
400.000000	3.376000   
400.500000	3.453000   
401.000000	3.577000   
401.500000	3.891000   
402.000000	4.021000   
402.500000	4.222000   
403.000000	4.088000   
403.500000	4.323000   
404.000000	4.367000   
404.500000	4.588000   
405.000000	5.009000   
405.500000	5.539000   
406.000000	6.370000   
406.500000	6.730000   
407.000000	7.979000   
407.500000	10.185000  
408.000000	12.970000  
408.500000	17.216000  
409.000000	22.999000  
409.500000	29.537000  
410.000000	38.900000  
410.500000	50.485000  
411.000000	63.306000  
411.500000	81.401000  
412.000000	98.286000  
412.500000	126.333000 
413.000000	155.923000 
413.500000	185.757000 
414.000000	219.885000 
414.500000	259.814000 
415.000000	296.270000 
415.500000	350.371000 
416.000000	400.150000 
416.500000	448.575000 
417.000000	551.090000 
417.500000	558.654000 
418.000000	659.461000 
418.500000	668.192000 
419.000000	713.107000 
419.500000	760.945000 
420.000000	802.833000 
420.500000	851.794000 
421.000000	888.855000 
421.500000	930.366000 
422.000000	962.924000 
422.500000	988.102000 
423.000000	999.999000 
423.500000	999.999000 
424.000000	999.999000 
424.500000	999.999000 
425.000000	999.999000 
425.500000	999.999000 
426.000000	999.999000 
426.500000	999.999000 
427.000000	999.999000 
427.500000	999.999000 
428.000000	999.999000 
428.500000	999.999000 
429.000000	999.999000 
429.500000	975.223000 
430.000000	942.826000 
430.500000	914.539000 
431.000000	872.019000 
431.500000	830.744000 
432.000000	778.396000 
432.500000	739.043000 
433.000000	680.224000 
433.500000	633.601000 
434.000000	576.766000 
434.500000	521.270000 
435.000000	467.655000 
435.500000	427.046000 
436.000000	377.167000 
436.500000	337.260000 
437.000000	293.346000 
437.500000	255.068000 
438.000000	211.331000 
438.500000	184.313000 
439.000000	151.824000 
439.500000	127.150000 
440.000000	104.305000 
440.500000	82.875000  
441.000000	62.903000  
441.500000	52.242000  
442.000000	43.249000  
442.500000	34.566000  
443.000000	27.698000  
443.500000	22.974000  
444.000000	17.785000  
444.500000	15.749000  
445.000000	13.231000  
445.500000	13.052000  
446.000000	12.190000  
446.500000	11.449000  
447.000000	11.053000  
447.500000	11.295000  
448.000000	10.945000  
448.500000	11.008000  
449.000000	11.142000  
449.500000	11.082000  
450.000000	11.255000  
450.500000	11.264000  
451.000000	11.163000  
451.500000	11.294000  
452.000000	10.721000  
452.500000	10.705000  
453.000000	11.105000  
453.500000	11.255000  
454.000000	10.799000  
454.500000	11.299000  
455.000000	11.799000  
455.500000	11.709000  
456.000000	11.160000  
456.500000	10.920000  
457.000000	11.113000  
457.500000	11.405000  
458.000000	11.716000  
458.500000	11.666000  
459.000000	11.772000  
459.500000	11.436000  
460.000000	11.414000  
460.500000	11.871000  
461.000000	11.929000  
461.500000	11.446000  
462.000000	12.055000  
462.500000	12.338000  
463.000000	12.002000  
463.500000	12.363000  
464.000000	11.893000  
464.500000	12.020000  
465.000000	12.335000  
465.500000	12.345000  
466.000000	12.742000  
466.500000	12.674000  
467.000000	12.802000  
467.500000	12.695000  
468.000000	12.554000  
468.500000	12.761000  
469.000000	13.077000  
469.500000	12.981000  
470.000000	13.053000  
470.500000	13.128000  
471.000000	13.415000  
471.500000	13.701000  
472.000000	14.261000  
472.500000	14.293000  
473.000000	13.967000  
473.500000	14.256000  
474.000000	14.088000  
474.500000	14.199000  
475.000000	14.150000  
475.500000	14.651000  
476.000000	15.416000  
476.500000	14.764000  
477.000000	15.379000  
477.500000	15.545000  
478.000000	15.481000  
478.500000	16.286000  
479.000000	16.716000  
479.500000	17.116000  
480.000000	17.018000  
480.500000	16.954000  
481.000000	18.009000  
481.500000	17.629000  
482.000000	18.113000  
482.500000	18.885000  
483.000000	18.181000  
483.500000	19.228000  
484.000000	18.864000  
484.500000	19.367000  
485.000000	20.384000  
485.500000	21.247000  
486.000000	21.123000  
486.500000	21.572000  
487.000000	21.852000  
487.500000	22.531000  
488.000000	23.223000  
488.500000	24.181000  
489.000000	24.424000  
489.500000	24.092000  
490.000000	24.973000  
490.500000	25.366000  
491.000000	25.977000  
491.500000	26.608000  
492.000000	26.300000  
492.500000	26.932000  
493.000000	27.251000  
493.500000	28.392000  
494.000000	28.134000  
494.500000	28.597000  
495.000000	29.150000  
495.500000	29.199000  
496.000000	29.329000  
496.500000	29.432000  
497.000000	29.429000  
497.500000	29.747000  
498.000000	29.531000  
498.500000	29.142000  
499.000000	29.662000  
499.500000	29.394000  
500.000000	28.948000  
500.500000	29.048000  
501.000000	28.700000  
501.500000	28.141000  
502.000000	28.302000  
502.500000	28.585000  
503.000000	27.011000  
503.500000	27.042000  
504.000000	26.882000  
504.500000	27.059000  
505.000000	26.595000  
505.500000	26.055000  
506.000000	25.882000  
506.500000	25.398000  
507.000000	25.243000  
507.500000	24.221000  
508.000000	23.968000  
508.500000	23.709000  
509.000000	23.445000  
509.500000	23.342000  
510.000000	22.871000  
510.500000	22.921000  
511.000000	22.738000  
511.500000	22.294000  
512.000000	21.939000  
512.500000	21.435000  
513.000000	21.056000  
513.500000	20.326000  
514.000000	20.368000  
514.500000	20.348000  
515.000000	20.165000  
515.500000	20.118000  
516.000000	20.245000  
516.500000	19.730000  
517.000000	19.180000  
517.500000	19.127000  
518.000000	19.242000  
518.500000	18.772000  
519.000000	19.121000  
519.500000	19.029000  
520.000000	18.677000  
520.500000	18.217000  
521.000000	18.097000  
521.500000	18.568000  
522.000000	17.783000  
522.500000	17.925000  
523.000000	18.221000  
523.500000	17.950000  
524.000000	17.030000  
524.500000	17.032000  
525.000000	17.601000  
525.500000	17.182000  
526.000000	16.899000  
526.500000	16.598000  
527.000000	16.472000  
527.500000	16.687000  
528.000000	16.451000  
528.500000	16.341000  
529.000000	15.671000  
529.500000	15.985000  
530.000000	15.192000  
530.500000	14.976000  
531.000000	14.834000  
531.500000	15.064000  
532.000000	15.158000  
532.500000	14.914000  
533.000000	14.338000  
533.500000	15.306000  
534.000000	14.746000  
534.500000	14.256000  
535.000000	14.023000  
535.500000	14.206000  
536.000000	14.116000  
536.500000	13.730000  
537.000000	13.701000  
537.500000	13.021000  
538.000000	13.085000  
538.500000	12.953000  
539.000000	13.007000  
539.500000	12.531000  
540.000000	12.649000  
540.500000	12.993000  
541.000000	12.465000  
541.500000	12.257000  
542.000000	11.725000  
542.500000	11.718000  
543.000000	11.885000  
543.500000	12.123000  
544.000000	12.095000  
544.500000	11.465000  
545.000000	11.224000  
545.500000	11.009000  
546.000000	11.159000  
546.500000	10.965000  
547.000000	10.660000  
547.500000	10.572000  
548.000000	10.290000  
548.500000	10.081000  

