PE FL                   SPECTRUM    ASCII       PEDS        1.60        
  -1
0149FE~1.SP
19/01/24
13:06:23.00
19/01/24
13:06:23.00


548.500000
1









LS45
295.00
10.00
10.00
SCAN
1
16
100
100
0
600
0
1
0
1
7
ON
550 545 
0 0 0
#HDR
-1
-1
#GR
NM
INT 
0.00002384185791015625
0.0
230.000000
0.500000
638
8
999.999000
0.874000
#DATA
230.000000	0.984000   
230.500000	1.134000   
231.000000	0.966000   
231.500000	1.015000   
232.000000	1.191000   
232.500000	1.290000   
233.000000	1.050000   
233.500000	1.063000   
234.000000	1.143000   
234.500000	0.874000   
235.000000	0.933000   
235.500000	1.059000   
236.000000	1.075000   
236.500000	1.100000   
237.000000	1.109000   
237.500000	1.263000   
238.000000	1.188000   
238.500000	1.052000   
239.000000	1.208000   
239.500000	1.064000   
240.000000	1.092000   
240.500000	0.937999   
241.000000	1.066000   
241.500000	1.143000   
242.000000	1.203000   
242.500000	1.325000   
243.000000	0.917000   
243.500000	1.096000   
244.000000	1.325000   
244.500000	1.430000   
245.000000	1.441000   
245.500000	1.460000   
246.000000	1.441000   
246.500000	1.575000   
247.000000	1.205000   
247.500000	1.136000   
248.000000	1.270000   
248.500000	1.166000   
249.000000	1.126000   
249.500000	1.426000   
250.000000	1.664000   
250.500000	1.387000   
251.000000	1.434000   
251.500000	1.403000   
252.000000	1.366000   
252.500000	1.367000   
253.000000	1.653000   
253.500000	1.426000   
254.000000	1.688000   
254.500000	1.769000   
255.000000	1.719000   
255.500000	1.966000   
256.000000	1.948000   
256.500000	1.674000   
257.000000	1.888000   
257.500000	1.945000   
258.000000	2.169000   
258.500000	2.184000   
259.000000	1.882000   
259.500000	2.079000   
260.000000	2.045000   
260.500000	2.314000   
261.000000	2.320000   
261.500000	2.394000   
262.000000	2.451000   
262.500000	2.470000   
263.000000	2.731000   
263.500000	2.814000   
264.000000	2.883000   
264.500000	2.978000   
265.000000	3.072000   
265.500000	3.027000   
266.000000	3.060000   
266.500000	3.004000   
267.000000	3.441000   
267.500000	3.440000   
268.000000	3.568000   
268.500000	3.480000   
269.000000	3.398000   
269.500000	3.658000   
270.000000	4.014000   
270.500000	4.089000   
271.000000	4.586000   
271.500000	5.048000   
272.000000	5.913000   
272.500000	6.491000   
273.000000	7.426000   
273.500000	9.882999   
274.000000	11.240000  
274.500000	15.062000  
275.000000	18.972000  
275.500000	25.112000  
276.000000	30.989000  
276.500000	39.989000  
277.000000	48.824000  
277.500000	60.294000  
278.000000	74.402000  
278.500000	87.566999  
279.000000	105.239000 
279.500000	122.669000 
280.000000	147.906000 
280.500000	169.845000 
281.000000	204.089000 
281.500000	231.976000 
282.000000	264.845000 
282.500000	302.229000 
283.000000	336.814000 
283.500000	381.917000 
284.000000	422.089000 
284.500000	470.551000 
285.000000	510.223000 
285.500000	561.984000 
286.000000	594.513000 
286.500000	638.494000 
287.000000	682.697000 
287.500000	727.368000 
288.000000	769.516000 
288.500000	810.043000 
289.000000	836.246000 
289.500000	870.712000 
290.000000	906.045000 
290.500000	923.571000 
291.000000	953.878000 
291.500000	966.730000 
292.000000	980.495000 
292.500000	987.432000 
293.000000	996.386000 
293.500000	999.999000 
294.000000	997.892000 
294.500000	989.058000 
295.000000	976.221000 
295.500000	955.379000 
296.000000	934.416000 
296.500000	910.609000 
297.000000	883.629000 
297.500000	845.249000 
298.000000	809.274000 
298.500000	767.062000 
299.000000	725.002000 
299.500000	675.284000 
300.000000	632.157000 
300.500000	588.098000 
301.000000	543.214000 
301.500000	497.187000 
302.000000	451.393000 
302.500000	417.803000 
303.000000	365.670000 
303.500000	331.801000 
304.000000	290.799000 
304.500000	258.286000 
305.000000	220.752000 
305.500000	195.686000 
306.000000	167.392000 
306.500000	143.228000 
307.000000	122.847000 
307.500000	105.982000 
308.000000	92.336000  
308.500000	78.247000  
309.000000	71.563000  
309.500000	63.548000  
310.000000	59.924000  
310.500000	56.403000  
311.000000	55.694000  
311.500000	54.559000  
312.000000	58.208000  
312.500000	59.057000  
313.000000	60.962000  
313.500000	64.504000  
314.000000	67.480000  
314.500000	71.557000  
315.000000	76.514000  
315.500000	82.918000  
316.000000	86.343000  
316.500000	91.241000  
317.000000	96.145000  
317.500000	100.825000 
318.000000	104.492000 
318.500000	109.631000 
319.000000	115.478000 
319.500000	118.553000 
320.000000	126.218000 
320.500000	131.575000 
321.000000	134.752000 
321.500000	137.889000 
322.000000	142.852000 
322.500000	148.040000 
323.000000	153.421000 
323.500000	154.982000 
324.000000	161.652000 
324.500000	161.503000 
325.000000	163.815000 
325.500000	166.608000 
326.000000	166.401000 
326.500000	167.118000 
327.000000	169.422000 
327.500000	167.092000 
328.000000	166.060000 
328.500000	167.410000 
329.000000	167.963000 
329.500000	167.240000 
330.000000	164.282000 
330.500000	163.438000 
331.000000	159.601000 
331.500000	158.029000 
332.000000	156.969000 
332.500000	152.382000 
333.000000	147.311000 
333.500000	146.744000 
334.000000	147.868000 
334.500000	142.157000 
335.000000	138.971000 
335.500000	137.973000 
336.000000	137.555000 
336.500000	135.792000 
337.000000	133.674000 
337.500000	132.541000 
338.000000	131.539000 
338.500000	128.698000 
339.000000	128.103000 
339.500000	127.007000 
340.000000	123.433000 
340.500000	126.856000 
341.000000	127.533000 
341.500000	127.460000 
342.000000	125.626000 
342.500000	129.395000 
343.000000	129.451000 
343.500000	130.457000 
344.000000	131.575000 
344.500000	132.059000 
345.000000	130.249000 
345.500000	131.214000 
346.000000	132.168000 
346.500000	134.242000 
347.000000	136.350000 
347.500000	133.997000 
348.000000	135.832000 
348.500000	138.635000 
349.000000	138.512000 
349.500000	137.384000 
350.000000	139.170000 
350.500000	142.405000 
351.000000	143.381000 
351.500000	142.508000 
352.000000	144.061000 
352.500000	143.388000 
353.000000	144.538000 
353.500000	144.408000 
354.000000	144.970000 
354.500000	145.630000 
355.000000	145.810000 
355.500000	146.946000 
356.000000	148.973000 
356.500000	144.924000 
357.000000	143.273000 
357.500000	146.664000 
358.000000	147.458000 
358.500000	145.486000 
359.000000	145.741000 
359.500000	146.705000 
360.000000	146.555000 
360.500000	144.618000 
361.000000	141.958000 
361.500000	144.571000 
362.000000	145.544000 
362.500000	144.998000 
363.000000	144.873000 
363.500000	142.602000 
364.000000	143.277000 
364.500000	142.324000 
365.000000	143.168000 
365.500000	141.348000 
366.000000	143.411000 
366.500000	142.390000 
367.000000	143.796000 
367.500000	143.503000 
368.000000	143.245000 
368.500000	140.937000 
369.000000	141.422000 
369.500000	141.020000 
370.000000	141.495000 
370.500000	140.230000 
371.000000	139.829000 
371.500000	139.504000 
372.000000	139.212000 
372.500000	139.501000 
373.000000	139.400000 
373.500000	140.467000 
374.000000	140.567000 
374.500000	139.721000 
375.000000	138.176000 
375.500000	139.576000 
376.000000	139.788000 
376.500000	138.858000 
377.000000	136.959000 
377.500000	134.285000 
378.000000	135.437000 
378.500000	137.828000 
379.000000	135.570000 
379.500000	134.494000 
380.000000	131.345000 
380.500000	134.327000 
381.000000	133.464000 
381.500000	132.737000 
382.000000	133.093000 
382.500000	131.877000 
383.000000	133.401000 
383.500000	132.555000 
384.000000	132.165000 
384.500000	130.302000 
385.000000	129.004000 
385.500000	128.966000 
386.000000	129.445000 
386.500000	126.857000 
387.000000	124.662000 
387.500000	123.502000 
388.000000	125.407000 
388.500000	126.394000 
389.000000	123.775000 
389.500000	122.993000 
390.000000	124.215000 
390.500000	121.722000 
391.000000	120.699000 
391.500000	120.235000 
392.000000	120.567000 
392.500000	119.100000 
393.000000	118.273000 
393.500000	117.578000 
394.000000	117.731000 
394.500000	116.522000 
395.000000	115.578000 
395.500000	115.175000 
396.000000	115.278000 
396.500000	115.140000 
397.000000	113.948000 
397.500000	115.037000 
398.000000	114.637000 
398.500000	114.225000 
399.000000	112.739000 
399.500000	113.036000 
400.000000	113.952000 
400.500000	111.888000 
401.000000	112.660000 
401.500000	111.505000 
402.000000	110.313000 
402.500000	109.570000 
403.000000	110.369000 
403.500000	109.388000 
404.000000	111.402000 
404.500000	109.772000 
405.000000	108.545000 
405.500000	108.787000 
406.000000	107.933000 
406.500000	107.778000 
407.000000	105.973000 
407.500000	107.725000 
408.000000	106.735000 
408.500000	107.238000 
409.000000	105.602000 
409.500000	105.305000 
410.000000	104.075000 
410.500000	102.782000 
411.000000	102.887000 
411.500000	101.968000 
412.000000	101.286000 
412.500000	99.661000  
413.000000	99.458000  
413.500000	97.483999  
414.000000	99.637000  
414.500000	98.793000  
415.000000	97.797000  
415.500000	97.322999  
416.000000	97.158000  
416.500000	95.162000  
417.000000	94.636000  
417.500000	93.991000  
418.000000	92.910000  
418.500000	90.645000  
419.000000	91.947000  
419.500000	90.659000  
420.000000	90.417000  
420.500000	89.872000  
421.000000	90.756000  
421.500000	88.530000  
422.000000	89.029000  
422.500000	88.178000  
423.000000	86.515000  
423.500000	85.480000  
424.000000	83.895000  
424.500000	83.546000  
425.000000	83.081999  
425.500000	82.889000  
426.000000	82.938000  
426.500000	81.776000  
427.000000	81.964000  
427.500000	80.056000  
428.000000	79.785000  
428.500000	78.681000  
429.000000	79.566999  
429.500000	77.717000  
430.000000	76.462000  
430.500000	78.200999  
431.000000	76.486000  
431.500000	75.489000  
432.000000	75.749000  
432.500000	77.397000  
433.000000	77.465999  
433.500000	76.880000  
434.000000	74.947999  
434.500000	75.542000  
435.000000	74.534000  
435.500000	73.464000  
436.000000	73.416000  
436.500000	74.884000  
437.000000	72.986000  
437.500000	72.163000  
438.000000	72.742999  
438.500000	71.084000  
439.000000	71.361000  
439.500000	72.157000  
440.000000	70.509000  
440.500000	69.813000  
441.000000	70.156000  
441.500000	68.983000  
442.000000	70.373000  
442.500000	68.964000  
443.000000	67.986999  
443.500000	68.184000  
444.000000	67.081999  
444.500000	67.396000  
445.000000	67.520000  
445.500000	65.952000  
446.000000	66.116000  
446.500000	66.134000  
447.000000	64.846999  
447.500000	64.620000  
448.000000	65.116000  
448.500000	63.978000  
449.000000	64.551000  
449.500000	65.227999  
450.000000	63.705000  
450.500000	62.993000  
451.000000	61.328000  
451.500000	60.636000  
452.000000	62.791000  
452.500000	62.400000  
453.000000	59.894000  
453.500000	59.157000  
454.000000	58.905000  
454.500000	59.022000  
455.000000	58.343000  
455.500000	58.198000  
456.000000	57.504000  
456.500000	56.749000  
457.000000	58.127000  
457.500000	56.761000  
458.000000	57.328000  
458.500000	56.658000  
459.000000	55.704000  
459.500000	53.814000  
460.000000	54.820000  
460.500000	53.851000  
461.000000	53.971000  
461.500000	52.948000  
462.000000	52.486000  
462.500000	51.059000  
463.000000	52.476000  
463.500000	50.977000  
464.000000	49.225000  
464.500000	49.487000  
465.000000	50.308000  
465.500000	48.563000  
466.000000	48.879000  
466.500000	48.641000  
467.000000	49.176000  
467.500000	48.520000  
468.000000	48.169000  
468.500000	46.603000  
469.000000	46.558000  
469.500000	46.711000  
470.000000	45.694000  
470.500000	45.517000  
471.000000	45.335000  
471.500000	44.503000  
472.000000	45.115000  
472.500000	45.309000  
473.000000	44.387000  
473.500000	43.863000  
474.000000	43.282000  
474.500000	43.184000  
475.000000	43.704000  
475.500000	42.696000  
476.000000	43.367000  
476.500000	43.158000  
477.000000	42.998000  
477.500000	42.833000  
478.000000	41.111000  
478.500000	41.277000  
479.000000	41.490000  
479.500000	40.722000  
480.000000	40.252000  
480.500000	40.772000  
481.000000	40.976000  
481.500000	41.089000  
482.000000	40.533000  
482.500000	39.426000  
483.000000	40.441000  
483.500000	40.209000  
484.000000	39.004000  
484.500000	39.004000  
485.000000	37.976000  
485.500000	37.504000  
486.000000	37.543000  
486.500000	38.449000  
487.000000	36.933000  
487.500000	36.786000  
488.000000	36.691000  
488.500000	36.048000  
489.000000	35.995000  
489.500000	36.540000  
490.000000	35.861000  
490.500000	35.125000  
491.000000	35.379000  
491.500000	35.796000  
492.000000	34.686000  
492.500000	33.721000  
493.000000	33.350000  
493.500000	33.581000  
494.000000	33.381000  
494.500000	33.903000  
495.000000	33.469000  
495.500000	32.565000  
496.000000	32.418000  
496.500000	32.253000  
497.000000	32.149000  
497.500000	31.076000  
498.000000	31.178000  
498.500000	31.668000  
499.000000	30.587000  
499.500000	30.244000  
500.000000	31.018000  
500.500000	29.437000  
501.000000	30.653000  
501.500000	29.904000  
502.000000	28.931000  
502.500000	29.222000  
503.000000	28.998000  
503.500000	28.815000  
504.000000	28.046000  
504.500000	27.985000  
505.000000	28.063000  
505.500000	27.767000  
506.000000	26.991000  
506.500000	27.359000  
507.000000	27.280000  
507.500000	26.611000  
508.000000	25.885000  
508.500000	26.352000  
509.000000	25.661000  
509.500000	25.945000  
510.000000	26.108000  
510.500000	24.902000  
511.000000	23.428000  
511.500000	24.263000  
512.000000	24.172000  
512.500000	24.016000  
513.000000	24.704000  
513.500000	24.173000  
514.000000	23.771000  
514.500000	23.821000  
515.000000	23.851000  
515.500000	22.830000  
516.000000	23.697000  
516.500000	22.847000  
517.000000	23.761000  
517.500000	23.008000  
518.000000	22.750000  
518.500000	22.276000  
519.000000	22.653000  
519.500000	21.916000  
520.000000	22.902000  
520.500000	22.481000  
521.000000	22.272000  
521.500000	21.179000  
522.000000	21.258000  
522.500000	21.001000  
523.000000	20.532000  
523.500000	20.408000  
524.000000	21.068000  
524.500000	21.238000  
525.000000	21.500000  
525.500000	19.978000  
526.000000	19.779000  
526.500000	19.738000  
527.000000	19.563000  
527.500000	19.371000  
528.000000	19.601000  
528.500000	19.865000  
529.000000	19.617000  
529.500000	19.013000  
530.000000	18.339000  
530.500000	18.372000  
531.000000	18.197000  
531.500000	18.622000  
532.000000	17.758000  
532.500000	17.357000  
533.000000	17.306000  
533.500000	17.180000  
534.000000	17.332000  
534.500000	16.924000  
535.000000	16.495000  
535.500000	16.773000  
536.000000	16.074000  
536.500000	16.085000  
537.000000	16.576000  
537.500000	16.711000  
538.000000	17.134000  
538.500000	16.753000  
539.000000	15.273000  
539.500000	15.535000  
540.000000	16.229000  
540.500000	15.811000  
541.000000	15.348000  
541.500000	14.944000  
542.000000	15.724000  
542.500000	14.431000  
543.000000	15.254000  
543.500000	14.262000  
544.000000	14.855000  
544.500000	14.083000  
545.000000	14.621000  
545.500000	14.052000  
546.000000	13.966000  
546.500000	13.934000  
547.000000	14.212000  
547.500000	14.737000  
548.000000	14.833000  
548.500000	14.264000  

