PE FL                   SPECTRUM    ASCII       PEDS        1.60        
  -1
0124SC~3.SP
19/01/24
13:42:35.00
19/01/24
13:42:35.00


548.500000
1









LS45
535.00
10.00
10.00
SCAN
1
16
100
100
0
600
0
1
0
1
7
ON
550 545 
0 0 0
#HDR
-1
-1
#GR
NM
INT 
0.00002384185791015625
0.0
230.000000
0.500000
638
8
306.481000
0.008000
#DATA
230.000000	0.013000   
230.500000	0.069000   
231.000000	0.037000   
231.500000	0.045000   
232.000000	0.048000   
232.500000	0.034000   
233.000000	0.024000   
233.500000	0.057000   
234.000000	0.024000   
234.500000	0.035000   
235.000000	0.037000   
235.500000	0.010000   
236.000000	0.008000   
236.500000	0.042000   
237.000000	0.061000   
237.500000	0.022000   
238.000000	0.008999   
238.500000	0.031000   
239.000000	0.011000   
239.500000	0.040000   
240.000000	0.059000   
240.500000	0.053000   
241.000000	0.016000   
241.500000	0.070999   
242.000000	0.051000   
242.500000	0.036000   
243.000000	0.021000   
243.500000	0.045000   
244.000000	0.016000   
244.500000	0.035000   
245.000000	0.061000   
245.500000	0.037000   
246.000000	0.024000   
246.500000	0.023000   
247.000000	0.045000   
247.500000	0.050000   
248.000000	0.051000   
248.500000	0.093000   
249.000000	0.099000   
249.500000	0.097000   
250.000000	0.069000   
250.500000	0.096000   
251.000000	0.140000   
251.500000	0.210000   
252.000000	0.322000   
252.500000	0.348000   
253.000000	0.540000   
253.500000	0.531000   
254.000000	0.749000   
254.500000	0.852000   
255.000000	0.926000   
255.500000	1.330000   
256.000000	1.437000   
256.500000	1.574000   
257.000000	1.811000   
257.500000	2.079000   
258.000000	2.301000   
258.500000	2.653000   
259.000000	2.831000   
259.500000	3.152000   
260.000000	3.372000   
260.500000	3.619000   
261.000000	3.822000   
261.500000	3.957000   
262.000000	4.343000   
262.500000	4.414000   
263.000000	4.574000   
263.500000	4.619000   
264.000000	4.890000   
264.500000	4.747000   
265.000000	4.770000   
265.500000	4.767000   
266.000000	4.558000   
266.500000	4.566000   
267.000000	4.346000   
267.500000	4.145000   
268.000000	4.054000   
268.500000	3.797000   
269.000000	3.623000   
269.500000	3.441000   
270.000000	3.201000   
270.500000	2.968000   
271.000000	2.843000   
271.500000	2.596000   
272.000000	2.069000   
272.500000	2.118000   
273.000000	1.784000   
273.500000	1.654000   
274.000000	1.308000   
274.500000	1.260000   
275.000000	1.099000   
275.500000	0.856000   
276.000000	0.708000   
276.500000	0.513000   
277.000000	0.403000   
277.500000	0.335000   
278.000000	0.231000   
278.500000	0.229000   
279.000000	0.181000   
279.500000	0.220000   
280.000000	0.200000   
280.500000	0.263000   
281.000000	0.303000   
281.500000	0.275000   
282.000000	0.386000   
282.500000	0.394000   
283.000000	0.422000   
283.500000	0.434000   
284.000000	0.437000   
284.500000	0.485000   
285.000000	0.517000   
285.500000	0.562999   
286.000000	0.649000   
286.500000	0.769000   
287.000000	0.827000   
287.500000	0.705000   
288.000000	0.786000   
288.500000	0.855000   
289.000000	0.896000   
289.500000	0.834000   
290.000000	0.826000   
290.500000	1.068000   
291.000000	0.962000   
291.500000	0.997000   
292.000000	0.972000   
292.500000	1.053000   
293.000000	0.877000   
293.500000	0.934000   
294.000000	1.006000   
294.500000	0.779000   
295.000000	0.966000   
295.500000	1.023000   
296.000000	0.787000   
296.500000	0.744000   
297.000000	0.845000   
297.500000	0.837000   
298.000000	0.647000   
298.500000	0.617000   
299.000000	0.632000   
299.500000	0.560000   
300.000000	0.555000   
300.500000	0.553000   
301.000000	0.489000   
301.500000	0.508000   
302.000000	0.429000   
302.500000	0.548000   
303.000000	0.512000   
303.500000	0.488000   
304.000000	0.425000   
304.500000	0.474000   
305.000000	0.438000   
305.500000	0.439000   
306.000000	0.385000   
306.500000	0.356000   
307.000000	0.436000   
307.500000	0.486000   
308.000000	0.388000   
308.500000	0.462000   
309.000000	0.502000   
309.500000	0.403000   
310.000000	0.444000   
310.500000	0.448000   
311.000000	0.495000   
311.500000	0.482000   
312.000000	0.565999   
312.500000	0.533000   
313.000000	0.548000   
313.500000	0.489000   
314.000000	0.453000   
314.500000	0.455000   
315.000000	0.672000   
315.500000	0.630000   
316.000000	0.624000   
316.500000	0.563999   
317.000000	0.597000   
317.500000	0.617000   
318.000000	0.614000   
318.500000	0.579000   
319.000000	0.685000   
319.500000	0.538000   
320.000000	0.624000   
320.500000	0.635000   
321.000000	0.731000   
321.500000	0.668000   
322.000000	0.687000   
322.500000	0.801000   
323.000000	0.770000   
323.500000	0.761000   
324.000000	0.789000   
324.500000	0.858000   
325.000000	0.845000   
325.500000	0.917000   
326.000000	0.885000   
326.500000	0.811000   
327.000000	0.862000   
327.500000	0.862000   
328.000000	0.947000   
328.500000	1.009000   
329.000000	0.933000   
329.500000	0.936000   
330.000000	1.028000   
330.500000	0.917000   
331.000000	0.982000   
331.500000	1.218000   
332.000000	1.123000   
332.500000	1.082000   
333.000000	1.120000   
333.500000	1.010000   
334.000000	0.975000   
334.500000	0.970000   
335.000000	1.053000   
335.500000	1.167000   
336.000000	1.121000   
336.500000	1.171000   
337.000000	1.173000   
337.500000	1.211000   
338.000000	1.225000   
338.500000	1.356000   
339.000000	1.266000   
339.500000	1.203000   
340.000000	1.214000   
340.500000	1.227000   
341.000000	1.260000   
341.500000	1.290000   
342.000000	1.131000   
342.500000	1.230000   
343.000000	1.239000   
343.500000	1.251000   
344.000000	1.157000   
344.500000	1.194000   
345.000000	1.388000   
345.500000	1.311000   
346.000000	1.429000   
346.500000	1.270000   
347.000000	1.567000   
347.500000	1.401000   
348.000000	1.350000   
348.500000	1.257000   
349.000000	1.254000   
349.500000	1.394000   
350.000000	1.312000   
350.500000	1.240000   
351.000000	1.297000   
351.500000	1.345000   
352.000000	1.445000   
352.500000	1.442000   
353.000000	1.400000   
353.500000	1.423000   
354.000000	1.303000   
354.500000	1.383000   
355.000000	1.325000   
355.500000	1.329000   
356.000000	1.332000   
356.500000	1.215000   
357.000000	1.335000   
357.500000	1.410000   
358.000000	1.271000   
358.500000	1.336000   
359.000000	1.261000   
359.500000	1.328000   
360.000000	1.134000   
360.500000	1.423000   
361.000000	1.343000   
361.500000	1.431000   
362.000000	1.333000   
362.500000	1.295000   
363.000000	1.206000   
363.500000	1.230000   
364.000000	1.363000   
364.500000	1.461000   
365.000000	1.366000   
365.500000	1.081000   
366.000000	1.188000   
366.500000	1.281000   
367.000000	1.207000   
367.500000	1.174000   
368.000000	1.313000   
368.500000	1.275000   
369.000000	1.189000   
369.500000	1.333000   
370.000000	1.256000   
370.500000	1.162000   
371.000000	1.193000   
371.500000	1.271000   
372.000000	1.226000   
372.500000	1.155000   
373.000000	1.196000   
373.500000	1.065000   
374.000000	1.190000   
374.500000	1.295000   
375.000000	1.254000   
375.500000	1.234000   
376.000000	1.349000   
376.500000	1.191000   
377.000000	1.258000   
377.500000	1.238000   
378.000000	1.326000   
378.500000	1.327000   
379.000000	1.220000   
379.500000	1.199000   
380.000000	1.134000   
380.500000	1.237000   
381.000000	1.307000   
381.500000	1.184000   
382.000000	1.141000   
382.500000	1.096000   
383.000000	1.148000   
383.500000	1.074000   
384.000000	1.005000   
384.500000	1.188000   
385.000000	1.236000   
385.500000	1.126000   
386.000000	1.095000   
386.500000	1.044000   
387.000000	1.148000   
387.500000	1.136000   
388.000000	1.103000   
388.500000	1.102000   
389.000000	1.095000   
389.500000	1.041000   
390.000000	1.125000   
390.500000	1.090000   
391.000000	1.027000   
391.500000	1.094000   
392.000000	1.092000   
392.500000	0.906000   
393.000000	1.057000   
393.500000	1.182000   
394.000000	1.129000   
394.500000	1.096000   
395.000000	0.955000   
395.500000	1.054000   
396.000000	1.121000   
396.500000	1.090000   
397.000000	1.066000   
397.500000	1.041000   
398.000000	1.045000   
398.500000	1.039000   
399.000000	1.071000   
399.500000	1.069000   
400.000000	1.132000   
400.500000	1.104000   
401.000000	0.991000   
401.500000	0.917000   
402.000000	0.948000   
402.500000	0.964000   
403.000000	1.038000   
403.500000	1.040000   
404.000000	1.033000   
404.500000	0.946000   
405.000000	1.014000   
405.500000	0.919000   
406.000000	1.178000   
406.500000	0.970000   
407.000000	0.886000   
407.500000	0.810000   
408.000000	0.969000   
408.500000	1.019000   
409.000000	0.860000   
409.500000	0.990000   
410.000000	0.991000   
410.500000	0.929000   
411.000000	0.980000   
411.500000	1.109000   
412.000000	1.092000   
412.500000	0.876000   
413.000000	0.963000   
413.500000	1.028000   
414.000000	0.970000   
414.500000	1.070000   
415.000000	1.043000   
415.500000	0.949000   
416.000000	0.892000   
416.500000	1.005000   
417.000000	1.007000   
417.500000	0.922000   
418.000000	1.010000   
418.500000	1.012000   
419.000000	1.039000   
419.500000	0.976000   
420.000000	0.905000   
420.500000	0.944000   
421.000000	0.937000   
421.500000	0.916000   
422.000000	1.085000   
422.500000	1.158000   
423.000000	1.009000   
423.500000	0.981000   
424.000000	1.009000   
424.500000	0.918000   
425.000000	0.976000   
425.500000	0.958000   
426.000000	0.931000   
426.500000	1.035000   
427.000000	0.954000   
427.500000	0.937000   
428.000000	0.975000   
428.500000	1.085000   
429.000000	1.055000   
429.500000	1.193000   
430.000000	1.005000   
430.500000	0.971000   
431.000000	0.926000   
431.500000	0.941999   
432.000000	0.955000   
432.500000	0.891000   
433.000000	0.883000   
433.500000	0.947000   
434.000000	1.108000   
434.500000	0.964000   
435.000000	0.953000   
435.500000	1.145000   
436.000000	1.141000   
436.500000	1.138000   
437.000000	0.996000   
437.500000	0.979000   
438.000000	1.027000   
438.500000	1.080000   
439.000000	1.141000   
439.500000	1.132000   
440.000000	1.033000   
440.500000	1.119000   
441.000000	1.208000   
441.500000	1.038000   
442.000000	1.102000   
442.500000	1.083000   
443.000000	1.193000   
443.500000	1.073000   
444.000000	1.117000   
444.500000	1.162000   
445.000000	1.182000   
445.500000	1.068000   
446.000000	1.135000   
446.500000	1.117000   
447.000000	1.007000   
447.500000	1.020000   
448.000000	1.061000   
448.500000	1.174000   
449.000000	1.056000   
449.500000	1.018000   
450.000000	1.111000   
450.500000	1.136000   
451.000000	1.166000   
451.500000	1.300000   
452.000000	1.241000   
452.500000	1.217000   
453.000000	1.005000   
453.500000	1.289000   
454.000000	1.223000   
454.500000	1.052000   
455.000000	1.108000   
455.500000	0.980000   
456.000000	1.115000   
456.500000	1.167000   
457.000000	0.989000   
457.500000	0.978000   
458.000000	1.143000   
458.500000	1.146000   
459.000000	1.173000   
459.500000	1.197000   
460.000000	1.068000   
460.500000	1.130000   
461.000000	1.024000   
461.500000	1.202000   
462.000000	0.977000   
462.500000	1.100000   
463.000000	1.043000   
463.500000	1.108000   
464.000000	1.174000   
464.500000	1.068000   
465.000000	1.059000   
465.500000	1.075000   
466.000000	1.162000   
466.500000	1.198000   
467.000000	1.152000   
467.500000	1.031000   
468.000000	0.975000   
468.500000	1.010000   
469.000000	1.135000   
469.500000	1.063000   
470.000000	1.027000   
470.500000	1.157000   
471.000000	1.069000   
471.500000	1.103000   
472.000000	1.027000   
472.500000	0.962000   
473.000000	1.087000   
473.500000	1.090000   
474.000000	1.253000   
474.500000	1.062000   
475.000000	1.174000   
475.500000	1.236000   
476.000000	1.180000   
476.500000	1.210000   
477.000000	1.160000   
477.500000	1.165000   
478.000000	1.147000   
478.500000	1.356000   
479.000000	1.231000   
479.500000	1.272000   
480.000000	1.374000   
480.500000	1.228000   
481.000000	1.231000   
481.500000	1.121000   
482.000000	1.226000   
482.500000	1.229000   
483.000000	1.323000   
483.500000	1.267000   
484.000000	1.348000   
484.500000	1.471000   
485.000000	1.438000   
485.500000	1.396000   
486.000000	1.381000   
486.500000	1.228000   
487.000000	1.419000   
487.500000	1.475000   
488.000000	1.314000   
488.500000	1.442000   
489.000000	1.470000   
489.500000	1.418000   
490.000000	1.388000   
490.500000	1.389000   
491.000000	1.399000   
491.500000	1.503000   
492.000000	1.482000   
492.500000	1.454000   
493.000000	1.442000   
493.500000	1.377000   
494.000000	1.380000   
494.500000	1.342000   
495.000000	1.479000   
495.500000	1.248000   
496.000000	1.484000   
496.500000	1.493000   
497.000000	1.434000   
497.500000	1.539000   
498.000000	1.445000   
498.500000	1.472000   
499.000000	1.558000   
499.500000	1.437000   
500.000000	1.522000   
500.500000	1.471000   
501.000000	1.591000   
501.500000	1.511000   
502.000000	1.564000   
502.500000	1.476000   
503.000000	1.522000   
503.500000	1.582000   
504.000000	1.703000   
504.500000	1.388000   
505.000000	1.538000   
505.500000	1.435000   
506.000000	1.440000   
506.500000	1.433000   
507.000000	1.410000   
507.500000	1.692000   
508.000000	1.667000   
508.500000	1.589000   
509.000000	1.445000   
509.500000	1.576000   
510.000000	1.649000   
510.500000	1.750000   
511.000000	1.835000   
511.500000	2.010000   
512.000000	2.207000   
512.500000	2.470000   
513.000000	3.243000   
513.500000	3.362000   
514.000000	4.052000   
514.500000	5.180000   
515.000000	7.256000   
515.500000	8.792999   
516.000000	11.980000  
516.500000	15.389000  
517.000000	19.965000  
517.500000	24.820000  
518.000000	32.195000  
518.500000	37.997000  
519.000000	46.597000  
519.500000	54.895000  
520.000000	64.622000  
520.500000	73.093000  
521.000000	84.199000  
521.500000	96.660000  
522.000000	112.779000 
522.500000	122.746000 
523.000000	138.309000 
523.500000	153.768000 
524.000000	172.151000 
524.500000	185.520000 
525.000000	200.507000 
525.500000	216.051000 
526.000000	231.424000 
526.500000	246.816000 
527.000000	258.377000 
527.500000	267.465000 
528.000000	276.773000 
528.500000	284.344000 
529.000000	293.118000 
529.500000	300.298000 
530.000000	302.256000 
530.500000	305.127000 
531.000000	306.481000 
531.500000	302.338000 
532.000000	301.289000 
532.500000	295.351000 
533.000000	287.458000 
533.500000	278.390000 
534.000000	270.801000 
534.500000	257.738000 
535.000000	245.696000 
535.500000	230.303000 
536.000000	218.997000 
536.500000	202.360000 
537.000000	188.354000 
537.500000	171.849000 
538.000000	155.133000 
538.500000	138.146000 
539.000000	125.559000 
539.500000	108.405000 
540.000000	96.526000  
540.500000	84.294000  
541.000000	75.214000  
541.500000	63.996000  
542.000000	57.103000  
542.500000	46.740000  
543.000000	40.211000  
543.500000	31.569000  
544.000000	27.683000  
544.500000	21.799000  
545.000000	18.591000  
545.500000	14.626000  
546.000000	11.883000  
546.500000	8.756000   
547.000000	7.075000   
547.500000	5.516000   
548.000000	4.576000   
548.500000	3.511000   

