PE FL                   SPECTRUM    ASCII       PEDS        1.60        
  -1
0168F5~1.SP
19/01/24
10:27:52.00
19/01/24
10:27:52.00


548.500000
1









LS45
335.00
10.00
10.00
SCAN
1
16
100
100
0
600
0
1
0
1
7
ON
435 365 
0 0 0
#HDR
-1
-1
#GR
NM
INT 
0.00002384185791015625
0.0
230.000000
0.500000
638
8
546.290000
0.098000
#DATA
230.000000	0.186000   
230.500000	0.210000   
231.000000	0.140000   
231.500000	0.188000   
232.000000	0.199000   
232.500000	0.152000   
233.000000	0.120000   
233.500000	0.098000   
234.000000	0.144000   
234.500000	0.201000   
235.000000	0.226000   
235.500000	0.157000   
236.000000	0.155000   
236.500000	0.147000   
237.000000	0.136000   
237.500000	0.149000   
238.000000	0.166000   
238.500000	0.197000   
239.000000	0.179000   
239.500000	0.131000   
240.000000	0.235000   
240.500000	0.232000   
241.000000	0.274000   
241.500000	0.229000   
242.000000	0.205000   
242.500000	0.305000   
243.000000	0.254000   
243.500000	0.204000   
244.000000	0.228000   
244.500000	0.227000   
245.000000	0.215000   
245.500000	0.206000   
246.000000	0.206000   
246.500000	0.241000   
247.000000	0.271000   
247.500000	0.331000   
248.000000	0.334000   
248.500000	0.171000   
249.000000	0.206000   
249.500000	0.307000   
250.000000	0.288000   
250.500000	0.292000   
251.000000	0.188000   
251.500000	0.197000   
252.000000	0.158000   
252.500000	0.280000   
253.000000	0.327000   
253.500000	0.195000   
254.000000	0.273000   
254.500000	0.307000   
255.000000	0.300000   
255.500000	0.210000   
256.000000	0.235000   
256.500000	0.338000   
257.000000	0.334000   
257.500000	0.216000   
258.000000	0.274000   
258.500000	0.332000   
259.000000	0.296000   
259.500000	0.306000   
260.000000	0.278000   
260.500000	0.254000   
261.000000	0.255000   
261.500000	0.265000   
262.000000	0.294000   
262.500000	0.297000   
263.000000	0.305000   
263.500000	0.288000   
264.000000	0.236000   
264.500000	0.260000   
265.000000	0.355000   
265.500000	0.330000   
266.000000	0.211000   
266.500000	0.318000   
267.000000	0.409000   
267.500000	0.373000   
268.000000	0.324000   
268.500000	0.338000   
269.000000	0.375000   
269.500000	0.331000   
270.000000	0.407000   
270.500000	0.448000   
271.000000	0.378000   
271.500000	0.324000   
272.000000	0.392000   
272.500000	0.422000   
273.000000	0.391000   
273.500000	0.385000   
274.000000	0.346000   
274.500000	0.307000   
275.000000	0.411000   
275.500000	0.397000   
276.000000	0.455000   
276.500000	0.390000   
277.000000	0.355000   
277.500000	0.455000   
278.000000	0.437000   
278.500000	0.465000   
279.000000	0.506000   
279.500000	0.605000   
280.000000	0.522000   
280.500000	0.549000   
281.000000	0.594000   
281.500000	0.396000   
282.000000	0.559000   
282.500000	0.536000   
283.000000	0.464000   
283.500000	0.533000   
284.000000	0.506000   
284.500000	0.655000   
285.000000	0.497000   
285.500000	0.659000   
286.000000	0.797000   
286.500000	0.641000   
287.000000	0.707000   
287.500000	0.603000   
288.000000	0.709000   
288.500000	0.863000   
289.000000	0.737000   
289.500000	0.795000   
290.000000	0.812000   
290.500000	0.765000   
291.000000	0.840000   
291.500000	0.737000   
292.000000	0.728000   
292.500000	0.844000   
293.000000	1.038000   
293.500000	0.907000   
294.000000	0.898000   
294.500000	1.076000   
295.000000	0.999000   
295.500000	1.118000   
296.000000	0.956000   
296.500000	1.112000   
297.000000	1.020000   
297.500000	1.005000   
298.000000	1.144000   
298.500000	1.194000   
299.000000	1.346000   
299.500000	1.320000   
300.000000	1.187000   
300.500000	1.331000   
301.000000	1.449000   
301.500000	1.344000   
302.000000	1.312000   
302.500000	1.496000   
303.000000	1.538000   
303.500000	1.771000   
304.000000	1.725000   
304.500000	1.681000   
305.000000	1.798000   
305.500000	2.091000   
306.000000	2.117000   
306.500000	2.030000   
307.000000	1.913000   
307.500000	2.134000   
308.000000	2.123000   
308.500000	2.014000   
309.000000	2.063000   
309.500000	2.348000   
310.000000	2.418000   
310.500000	2.388000   
311.000000	2.626000   
311.500000	3.087000   
312.000000	2.909000   
312.500000	3.851000   
313.000000	4.067000   
313.500000	4.973000   
314.000000	5.969000   
314.500000	7.802000   
315.000000	9.504000   
315.500000	13.529000  
316.000000	16.050000  
316.500000	20.638000  
317.000000	25.580000  
317.500000	31.682000  
318.000000	38.166000  
318.500000	46.067000  
319.000000	55.788000  
319.500000	67.331999  
320.000000	82.242999  
320.500000	96.959000  
321.000000	113.133000 
321.500000	130.123000 
322.000000	149.773000 
322.500000	164.436000 
323.000000	194.819000 
323.500000	215.624000 
324.000000	245.996000 
324.500000	270.755000 
325.000000	299.560000 
325.500000	319.424000 
326.000000	346.678000 
326.500000	369.525000 
327.000000	399.191000 
327.500000	423.881000 
328.000000	443.044000 
328.500000	466.124000 
329.000000	486.967000 
329.500000	503.399000 
330.000000	518.477000 
330.500000	527.943000 
331.000000	532.155000 
331.500000	546.290000 
332.000000	545.768000 
332.500000	539.418000 
333.000000	533.051000 
333.500000	522.640000 
334.000000	517.243000 
334.500000	503.629000 
335.000000	487.048000 
335.500000	466.468000 
336.000000	446.755000 
336.500000	423.400000 
337.000000	400.931000 
337.500000	368.163000 
338.000000	348.509000 
338.500000	320.763000 
339.000000	297.173000 
339.500000	268.699000 
340.000000	246.330000 
340.500000	219.059000 
341.000000	196.112000 
341.500000	174.671000 
342.000000	151.509000 
342.500000	132.353000 
343.000000	114.893000 
343.500000	101.902000 
344.000000	84.480000  
344.500000	72.906000  
345.000000	60.661000  
345.500000	52.214000  
346.000000	40.431000  
346.500000	33.139000  
347.000000	26.983000  
347.500000	22.944000  
348.000000	18.314000  
348.500000	15.487000  
349.000000	12.508000  
349.500000	11.697000  
350.000000	9.420999   
350.500000	8.398000   
351.000000	7.315000   
351.500000	7.382000   
352.000000	7.355000   
352.500000	7.034000   
353.000000	7.223000   
353.500000	7.311000   
354.000000	7.181000   
354.500000	7.639000   
355.000000	8.249000   
355.500000	8.544000   
356.000000	8.755000   
356.500000	9.897000   
357.000000	10.832000  
357.500000	11.440000  
358.000000	12.132000  
358.500000	13.436000  
359.000000	14.450000  
359.500000	16.472000  
360.000000	18.439000  
360.500000	19.882000  
361.000000	20.882000  
361.500000	23.464000  
362.000000	26.135000  
362.500000	29.068000  
363.000000	31.655000  
363.500000	33.904000  
364.000000	36.294000  
364.500000	40.634000  
365.000000	43.594000  
365.500000	46.374000  
366.000000	50.267000  
366.500000	53.083000  
367.000000	58.017000  
367.500000	59.265000  
368.000000	62.266000  
368.500000	65.363000  
369.000000	69.500000  
369.500000	71.043000  
370.000000	72.986000  
370.500000	75.252000  
371.000000	76.147000  
371.500000	80.886000  
372.000000	80.723000  
372.500000	81.867000  
373.000000	82.020000  
373.500000	82.802000  
374.000000	84.497000  
374.500000	85.211000  
375.000000	83.346999  
375.500000	82.157000  
376.000000	81.331000  
376.500000	79.940000  
377.000000	78.989000  
377.500000	75.822999  
378.000000	74.203000  
378.500000	71.515000  
379.000000	68.804000  
379.500000	65.046000  
380.000000	63.063000  
380.500000	59.698000  
381.000000	55.303000  
381.500000	51.514000  
382.000000	48.485000  
382.500000	47.087000  
383.000000	42.860000  
383.500000	40.096000  
384.000000	35.751000  
384.500000	32.998000  
385.000000	30.491000  
385.500000	27.594000  
386.000000	25.462000  
386.500000	23.550000  
387.000000	20.697000  
387.500000	19.426000  
388.000000	16.947000  
388.500000	14.510000  
389.000000	12.987000  
389.500000	11.171000  
390.000000	10.677000  
390.500000	9.023999   
391.000000	8.483000   
391.500000	7.250000   
392.000000	5.890000   
392.500000	5.331000   
393.000000	4.871000   
393.500000	4.328000   
394.000000	3.697000   
394.500000	3.454000   
395.000000	3.178000   
395.500000	2.951000   
396.000000	2.717000   
396.500000	2.428000   
397.000000	2.258000   
397.500000	2.118000   
398.000000	2.271000   
398.500000	2.074000   
399.000000	1.890000   
399.500000	1.900000   
400.000000	1.586000   
400.500000	1.781000   
401.000000	1.759000   
401.500000	1.430000   
402.000000	1.447000   
402.500000	1.668000   
403.000000	1.405000   
403.500000	1.554000   
404.000000	1.611000   
404.500000	1.543000   
405.000000	1.571000   
405.500000	1.330000   
406.000000	1.619000   
406.500000	1.535000   
407.000000	1.563000   
407.500000	1.322000   
408.000000	1.403000   
408.500000	1.418000   
409.000000	1.370000   
409.500000	1.390000   
410.000000	1.287000   
410.500000	1.610000   
411.000000	1.526000   
411.500000	1.621000   
412.000000	1.419000   
412.500000	1.370000   
413.000000	1.302000   
413.500000	1.516000   
414.000000	1.367000   
414.500000	1.150000   
415.000000	1.212000   
415.500000	1.095000   
416.000000	1.142000   
416.500000	1.005000   
417.000000	1.146000   
417.500000	1.157000   
418.000000	1.292000   
418.500000	1.316000   
419.000000	1.275000   
419.500000	1.007000   
420.000000	1.116000   
420.500000	1.203000   
421.000000	1.283000   
421.500000	1.216000   
422.000000	1.088000   
422.500000	1.082000   
423.000000	1.111000   
423.500000	1.153000   
424.000000	1.248000   
424.500000	1.052000   
425.000000	1.234000   
425.500000	1.043000   
426.000000	1.149000   
426.500000	1.106000   
427.000000	0.858000   
427.500000	1.018000   
428.000000	1.181000   
428.500000	1.146000   
429.000000	1.078000   
429.500000	1.054000   
430.000000	1.076000   
430.500000	1.094000   
431.000000	1.114000   
431.500000	1.279000   
432.000000	1.109000   
432.500000	1.076000   
433.000000	0.966000   
433.500000	1.115000   
434.000000	1.130000   
434.500000	0.979000   
435.000000	0.991000   
435.500000	0.999000   
436.000000	0.963000   
436.500000	0.889000   
437.000000	0.902000   
437.500000	0.812000   
438.000000	0.892000   
438.500000	1.042000   
439.000000	0.978000   
439.500000	0.979000   
440.000000	0.959000   
440.500000	0.977000   
441.000000	1.171000   
441.500000	1.050000   
442.000000	0.802000   
442.500000	0.870000   
443.000000	0.797000   
443.500000	0.929000   
444.000000	0.892000   
444.500000	0.981000   
445.000000	0.930000   
445.500000	0.889000   
446.000000	0.807000   
446.500000	1.016000   
447.000000	1.047000   
447.500000	1.156000   
448.000000	0.861000   
448.500000	0.904000   
449.000000	1.074000   
449.500000	0.797000   
450.000000	0.925000   
450.500000	0.887000   
451.000000	0.878000   
451.500000	0.985000   
452.000000	0.939999   
452.500000	0.919000   
453.000000	0.937999   
453.500000	0.954000   
454.000000	0.979000   
454.500000	1.184000   
455.000000	1.037000   
455.500000	1.014000   
456.000000	1.038000   
456.500000	1.175000   
457.000000	1.180000   
457.500000	0.803000   
458.000000	0.979000   
458.500000	1.100000   
459.000000	0.895000   
459.500000	1.003000   
460.000000	0.869000   
460.500000	0.889000   
461.000000	0.996000   
461.500000	0.973000   
462.000000	0.887000   
462.500000	0.963000   
463.000000	0.779000   
463.500000	1.087000   
464.000000	0.919000   
464.500000	1.082000   
465.000000	0.972000   
465.500000	0.796000   
466.000000	0.854000   
466.500000	0.884000   
467.000000	0.863000   
467.500000	0.918000   
468.000000	0.763000   
468.500000	0.759000   
469.000000	0.800000   
469.500000	0.881000   
470.000000	0.912000   
470.500000	0.954000   
471.000000	0.707000   
471.500000	0.767000   
472.000000	0.682000   
472.500000	0.625000   
473.000000	0.714000   
473.500000	0.782000   
474.000000	0.762000   
474.500000	0.666000   
475.000000	0.699000   
475.500000	0.664000   
476.000000	0.739000   
476.500000	0.698000   
477.000000	0.695000   
477.500000	0.758000   
478.000000	0.830000   
478.500000	0.676000   
479.000000	0.670000   
479.500000	0.608000   
480.000000	0.886000   
480.500000	0.722000   
481.000000	0.729000   
481.500000	0.820000   
482.000000	0.736000   
482.500000	0.913000   
483.000000	0.849000   
483.500000	0.583000   
484.000000	0.754000   
484.500000	0.643000   
485.000000	0.644000   
485.500000	0.648000   
486.000000	0.761000   
486.500000	0.711000   
487.000000	0.916000   
487.500000	0.830000   
488.000000	0.762000   
488.500000	0.782000   
489.000000	0.778000   
489.500000	0.901000   
490.000000	0.750000   
490.500000	0.873000   
491.000000	0.745000   
491.500000	0.813999   
492.000000	0.785000   
492.500000	0.838000   
493.000000	0.814999   
493.500000	0.660000   
494.000000	0.726000   
494.500000	0.769000   
495.000000	0.685000   
495.500000	0.687999   
496.000000	0.760000   
496.500000	0.851000   
497.000000	0.822000   
497.500000	1.045000   
498.000000	1.001000   
498.500000	0.739000   
499.000000	0.846000   
499.500000	0.725000   
500.000000	0.860000   
500.500000	0.689999   
501.000000	0.647000   
501.500000	0.821000   
502.000000	0.761000   
502.500000	0.695000   
503.000000	0.685000   
503.500000	0.559000   
504.000000	0.664000   
504.500000	0.629000   
505.000000	0.706000   
505.500000	0.750000   
506.000000	0.659000   
506.500000	0.591000   
507.000000	0.793000   
507.500000	0.710000   
508.000000	0.474000   
508.500000	0.581000   
509.000000	0.553000   
509.500000	0.755000   
510.000000	0.610000   
510.500000	0.554000   
511.000000	0.803000   
511.500000	0.802000   
512.000000	0.593000   
512.500000	0.581000   
513.000000	0.674000   
513.500000	0.775000   
514.000000	0.555000   
514.500000	0.641000   
515.000000	0.724000   
515.500000	0.689999   
516.000000	0.638000   
516.500000	0.650000   
517.000000	0.717000   
517.500000	0.812000   
518.000000	0.678000   
518.500000	0.666000   
519.000000	0.677000   
519.500000	0.677000   
520.000000	0.674000   
520.500000	0.689999   
521.000000	0.545000   
521.500000	0.525000   
522.000000	0.648000   
522.500000	0.702000   
523.000000	0.756000   
523.500000	0.619000   
524.000000	0.619000   
524.500000	0.597000   
525.000000	0.663000   
525.500000	0.576000   
526.000000	0.583000   
526.500000	0.674000   
527.000000	0.757000   
527.500000	0.464000   
528.000000	0.622000   
528.500000	0.571000   
529.000000	0.565999   
529.500000	0.516000   
530.000000	0.489000   
530.500000	0.556000   
531.000000	0.454000   
531.500000	0.500000   
532.000000	0.545000   
532.500000	0.619000   
533.000000	0.578000   
533.500000	0.544000   
534.000000	0.642000   
534.500000	0.543000   
535.000000	0.632000   
535.500000	0.635000   
536.000000	0.585000   
536.500000	0.541000   
537.000000	0.412000   
537.500000	0.589000   
538.000000	0.546000   
538.500000	0.628000   
539.000000	0.545000   
539.500000	0.480000   
540.000000	0.579000   
540.500000	0.649000   
541.000000	0.649000   
541.500000	0.581000   
542.000000	0.609000   
542.500000	0.799000   
543.000000	0.687000   
543.500000	0.751000   
544.000000	0.525000   
544.500000	0.608000   
545.000000	0.552000   
545.500000	0.490000   
546.000000	0.436000   
546.500000	0.502000   
547.000000	0.522000   
547.500000	0.506000   
548.000000	0.441000   
548.500000	0.393000   

