PE FL                   SPECTRUM    ASCII       PEDS        1.60        
  -1
016CF1~1.SP
19/01/24
10:34:40.00
19/01/24
10:34:40.00


548.500000
1









LS45
380.00
10.00
10.00
SCAN
1
16
100
100
0
600
0
1
0
1
7
ON
435 365 
0 0 0
#HDR
-1
-1
#GR
NM
INT 
0.00002384185791015625
0.0
230.000000
0.500000
638
8
439.049000
0.027000
#DATA
230.000000	0.027000   
230.500000	0.066000   
231.000000	0.093000   
231.500000	0.044000   
232.000000	0.078000   
232.500000	0.055000   
233.000000	0.098000   
233.500000	0.076000   
234.000000	0.097000   
234.500000	0.087999   
235.000000	0.052000   
235.500000	0.089000   
236.000000	0.107000   
236.500000	0.109000   
237.000000	0.098000   
237.500000	0.068000   
238.000000	0.074000   
238.500000	0.122000   
239.000000	0.086999   
239.500000	0.070000   
240.000000	0.073000   
240.500000	0.147000   
241.000000	0.089000   
241.500000	0.081000   
242.000000	0.071999   
242.500000	0.036000   
243.000000	0.047000   
243.500000	0.074000   
244.000000	0.094000   
244.500000	0.081000   
245.000000	0.099000   
245.500000	0.137000   
246.000000	0.079000   
246.500000	0.127000   
247.000000	0.114000   
247.500000	0.112000   
248.000000	0.094000   
248.500000	0.066000   
249.000000	0.108000   
249.500000	0.141000   
250.000000	0.103000   
250.500000	0.091000   
251.000000	0.080000   
251.500000	0.098000   
252.000000	0.104000   
252.500000	0.099000   
253.000000	0.076000   
253.500000	0.062000   
254.000000	0.086999   
254.500000	0.111000   
255.000000	0.114000   
255.500000	0.076000   
256.000000	0.179000   
256.500000	0.157000   
257.000000	0.080000   
257.500000	0.107000   
258.000000	0.109000   
258.500000	0.109000   
259.000000	0.099000   
259.500000	0.129000   
260.000000	0.107000   
260.500000	0.112000   
261.000000	0.135000   
261.500000	0.142000   
262.000000	0.104000   
262.500000	0.145000   
263.000000	0.130000   
263.500000	0.191000   
264.000000	0.187000   
264.500000	0.112000   
265.000000	0.135000   
265.500000	0.102000   
266.000000	0.121000   
266.500000	0.100000   
267.000000	0.104000   
267.500000	0.156000   
268.000000	0.156000   
268.500000	0.125000   
269.000000	0.183000   
269.500000	0.091000   
270.000000	0.122000   
270.500000	0.116000   
271.000000	0.153000   
271.500000	0.139000   
272.000000	0.129000   
272.500000	0.178000   
273.000000	0.168000   
273.500000	0.180000   
274.000000	0.132000   
274.500000	0.141000   
275.000000	0.117000   
275.500000	0.130000   
276.000000	0.171000   
276.500000	0.191000   
277.000000	0.160000   
277.500000	0.188000   
278.000000	0.165000   
278.500000	0.144000   
279.000000	0.196000   
279.500000	0.157000   
280.000000	0.163000   
280.500000	0.126000   
281.000000	0.171000   
281.500000	0.178000   
282.000000	0.154000   
282.500000	0.201000   
283.000000	0.209000   
283.500000	0.207000   
284.000000	0.198000   
284.500000	0.177000   
285.000000	0.190000   
285.500000	0.264000   
286.000000	0.244000   
286.500000	0.165000   
287.000000	0.175000   
287.500000	0.190000   
288.000000	0.199000   
288.500000	0.183000   
289.000000	0.208000   
289.500000	0.238000   
290.000000	0.195000   
290.500000	0.275000   
291.000000	0.183000   
291.500000	0.155000   
292.000000	0.257000   
292.500000	0.232000   
293.000000	0.137000   
293.500000	0.160000   
294.000000	0.242000   
294.500000	0.207000   
295.000000	0.193000   
295.500000	0.191000   
296.000000	0.215000   
296.500000	0.240000   
297.000000	0.161000   
297.500000	0.216000   
298.000000	0.203000   
298.500000	0.258000   
299.000000	0.268000   
299.500000	0.290000   
300.000000	0.269000   
300.500000	0.208000   
301.000000	0.236000   
301.500000	0.271000   
302.000000	0.352000   
302.500000	0.333000   
303.000000	0.268000   
303.500000	0.319000   
304.000000	0.356000   
304.500000	0.245000   
305.000000	0.327000   
305.500000	0.326000   
306.000000	0.336000   
306.500000	0.319000   
307.000000	0.317000   
307.500000	0.315000   
308.000000	0.292000   
308.500000	0.252000   
309.000000	0.190000   
309.500000	0.287000   
310.000000	0.277000   
310.500000	0.281000   
311.000000	0.301000   
311.500000	0.287000   
312.000000	0.223000   
312.500000	0.229000   
313.000000	0.204000   
313.500000	0.282000   
314.000000	0.272000   
314.500000	0.292000   
315.000000	0.286000   
315.500000	0.309000   
316.000000	0.421000   
316.500000	0.365000   
317.000000	0.478000   
317.500000	0.514000   
318.000000	0.434000   
318.500000	0.320000   
319.000000	0.329000   
319.500000	0.366000   
320.000000	0.376000   
320.500000	0.429000   
321.000000	0.361000   
321.500000	0.381000   
322.000000	0.459000   
322.500000	0.455000   
323.000000	0.457000   
323.500000	0.456000   
324.000000	0.502000   
324.500000	0.490000   
325.000000	0.436000   
325.500000	0.472000   
326.000000	0.457000   
326.500000	0.408000   
327.000000	0.475000   
327.500000	0.602000   
328.000000	0.499000   
328.500000	0.530000   
329.000000	0.558000   
329.500000	0.602000   
330.000000	0.523000   
330.500000	0.503000   
331.000000	0.505000   
331.500000	0.523000   
332.000000	0.697000   
332.500000	0.685000   
333.000000	0.696000   
333.500000	0.642000   
334.000000	0.613000   
334.500000	0.685000   
335.000000	0.629000   
335.500000	0.562999   
336.000000	0.615000   
336.500000	0.850000   
337.000000	0.857000   
337.500000	0.726000   
338.000000	0.775000   
338.500000	0.691999   
339.000000	0.709000   
339.500000	0.956000   
340.000000	0.843000   
340.500000	0.744000   
341.000000	0.733000   
341.500000	0.890000   
342.000000	0.850000   
342.500000	1.102000   
343.000000	1.177000   
343.500000	1.009000   
344.000000	1.008000   
344.500000	1.069000   
345.000000	1.028000   
345.500000	1.183000   
346.000000	1.252000   
346.500000	1.141000   
347.000000	1.222000   
347.500000	1.350000   
348.000000	1.314000   
348.500000	1.195000   
349.000000	1.411000   
349.500000	1.446000   
350.000000	1.386000   
350.500000	1.429000   
351.000000	1.618000   
351.500000	1.553000   
352.000000	1.630000   
352.500000	1.797000   
353.000000	1.816000   
353.500000	1.559000   
354.000000	1.641000   
354.500000	1.974000   
355.000000	1.996000   
355.500000	2.278000   
356.000000	2.720000   
356.500000	2.809000   
357.000000	3.428000   
357.500000	4.142000   
358.000000	5.228000   
358.500000	6.466000   
359.000000	8.429000   
359.500000	10.734000  
360.000000	12.924000  
360.500000	16.631000  
361.000000	20.312000  
361.500000	25.731000  
362.000000	31.979000  
362.500000	40.200000  
363.000000	48.252000  
363.500000	57.893000  
364.000000	67.909000  
364.500000	78.858000  
365.000000	90.607000  
365.500000	104.136000 
366.000000	118.448000 
366.500000	134.305000 
367.000000	152.929000 
367.500000	169.748000 
368.000000	191.892000 
368.500000	209.511000 
369.000000	234.119000 
369.500000	253.479000 
370.000000	279.405000 
370.500000	292.938000 
371.000000	316.046000 
371.500000	331.406000 
372.000000	349.220000 
372.500000	366.119000 
373.000000	384.204000 
373.500000	395.992000 
374.000000	409.053000 
374.500000	420.106000 
375.000000	430.142000 
375.500000	436.017000 
376.000000	439.049000 
376.500000	437.658000 
377.000000	438.032000 
377.500000	435.164000 
378.000000	429.784000 
378.500000	422.034000 
379.000000	409.232000 
379.500000	397.218000 
380.000000	383.536000 
380.500000	365.498000 
381.000000	348.565000 
381.500000	332.391000 
382.000000	312.513000 
382.500000	291.257000 
383.000000	269.944000 
383.500000	253.731000 
384.000000	230.886000 
384.500000	212.806000 
385.000000	190.329000 
385.500000	169.812000 
386.000000	150.284000 
386.500000	135.784000 
387.000000	117.192000 
387.500000	104.114000 
388.000000	91.053000  
388.500000	80.915000  
389.000000	67.999000  
389.500000	57.772000  
390.000000	48.380000  
390.500000	40.634000  
391.000000	33.391000  
391.500000	27.670000  
392.000000	21.959000  
392.500000	17.745000  
393.000000	14.798000  
393.500000	11.689000  
394.000000	9.583000   
394.500000	7.728000   
395.000000	6.390000   
395.500000	5.506000   
396.000000	5.118000   
396.500000	4.415000   
397.000000	4.222000   
397.500000	4.003000   
398.000000	3.759000   
398.500000	3.562000   
399.000000	3.595000   
399.500000	3.377000   
400.000000	3.576000   
400.500000	3.467000   
401.000000	3.532000   
401.500000	3.401000   
402.000000	3.296000   
402.500000	3.354000   
403.000000	3.218000   
403.500000	2.989000   
404.000000	3.182000   
404.500000	3.046000   
405.000000	3.052000   
405.500000	3.012000   
406.000000	2.980000   
406.500000	2.917000   
407.000000	2.959000   
407.500000	3.071000   
408.000000	2.831000   
408.500000	2.741000   
409.000000	2.700000   
409.500000	2.829000   
410.000000	3.152000   
410.500000	3.000000   
411.000000	2.782000   
411.500000	2.849000   
412.000000	2.763000   
412.500000	2.999000   
413.000000	3.248000   
413.500000	3.670000   
414.000000	3.851000   
414.500000	4.136000   
415.000000	4.882000   
415.500000	4.965000   
416.000000	5.477000   
416.500000	6.008000   
417.000000	6.778000   
417.500000	7.624000   
418.000000	8.638000   
418.500000	9.103999   
419.000000	10.397000  
419.500000	11.031000  
420.000000	12.225000  
420.500000	13.199000  
421.000000	14.042000  
421.500000	15.490000  
422.000000	16.700000  
422.500000	17.893000  
423.000000	18.568000  
423.500000	21.169000  
424.000000	23.490000  
424.500000	24.888000  
425.000000	24.412000  
425.500000	27.081000  
426.000000	28.437000  
426.500000	30.171000  
427.000000	31.703000  
427.500000	32.135000  
428.000000	33.669000  
428.500000	34.809000  
429.000000	35.277000  
429.500000	36.438000  
430.000000	36.829000  
430.500000	36.560000  
431.000000	36.939000  
431.500000	36.554000  
432.000000	36.010000  
432.500000	37.073000  
433.000000	37.129000  
433.500000	35.982000  
434.000000	34.351000  
434.500000	34.825000  
435.000000	33.674000  
435.500000	33.447000  
436.000000	32.213000  
436.500000	31.577000  
437.000000	30.009000  
437.500000	29.205000  
438.000000	28.577000  
438.500000	27.240000  
439.000000	25.716000  
439.500000	24.300000  
440.000000	22.566000  
440.500000	20.714000  
441.000000	18.854000  
441.500000	17.830000  
442.000000	16.466000  
442.500000	14.814000  
443.000000	14.383000  
443.500000	12.851000  
444.000000	11.851000  
444.500000	10.537000  
445.000000	9.287000   
445.500000	8.311999   
446.000000	8.055999   
446.500000	6.753000   
447.000000	6.388000   
447.500000	4.824000   
448.000000	4.604000   
448.500000	4.086000   
449.000000	3.577000   
449.500000	3.146000   
450.000000	2.853000   
450.500000	2.902000   
451.000000	2.766000   
451.500000	2.269000   
452.000000	2.112000   
452.500000	2.079000   
453.000000	1.769000   
453.500000	1.527000   
454.000000	1.568000   
454.500000	1.303000   
455.000000	1.252000   
455.500000	1.411000   
456.000000	1.293000   
456.500000	1.082000   
457.000000	1.296000   
457.500000	1.085000   
458.000000	1.177000   
458.500000	1.029000   
459.000000	0.932000   
459.500000	0.898000   
460.000000	0.997000   
460.500000	1.016000   
461.000000	0.887000   
461.500000	0.821000   
462.000000	0.769000   
462.500000	0.816999   
463.000000	0.748000   
463.500000	0.617000   
464.000000	0.843000   
464.500000	0.803000   
465.000000	0.733000   
465.500000	0.642000   
466.000000	0.666000   
466.500000	0.785000   
467.000000	0.743000   
467.500000	0.723000   
468.000000	0.748000   
468.500000	0.795000   
469.000000	0.760000   
469.500000	0.598000   
470.000000	0.627000   
470.500000	0.620000   
471.000000	0.549000   
471.500000	0.722000   
472.000000	0.764000   
472.500000	0.615000   
473.000000	0.667000   
473.500000	0.624000   
474.000000	0.570000   
474.500000	0.627000   
475.000000	0.630000   
475.500000	0.562000   
476.000000	0.661000   
476.500000	0.554000   
477.000000	0.489000   
477.500000	0.575000   
478.000000	0.512000   
478.500000	0.650000   
479.000000	0.613000   
479.500000	0.638000   
480.000000	0.573000   
480.500000	0.609000   
481.000000	0.486000   
481.500000	0.565999   
482.000000	0.588000   
482.500000	0.477000   
483.000000	0.535000   
483.500000	0.651000   
484.000000	0.658000   
484.500000	0.406000   
485.000000	0.608000   
485.500000	0.518000   
486.000000	0.615000   
486.500000	0.588000   
487.000000	0.586000   
487.500000	0.700000   
488.000000	0.487000   
488.500000	0.567999   
489.000000	0.544000   
489.500000	0.597000   
490.000000	0.528000   
490.500000	0.464000   
491.000000	0.422000   
491.500000	0.505000   
492.000000	0.532000   
492.500000	0.654000   
493.000000	0.556000   
493.500000	0.583000   
494.000000	0.576000   
494.500000	0.554000   
495.000000	0.549000   
495.500000	0.500000   
496.000000	0.610000   
496.500000	0.660000   
497.000000	0.612000   
497.500000	0.643000   
498.000000	0.569000   
498.500000	0.616000   
499.000000	0.558000   
499.500000	0.427000   
500.000000	0.452000   
500.500000	0.433000   
501.000000	0.498000   
501.500000	0.602000   
502.000000	0.505000   
502.500000	0.515000   
503.000000	0.351000   
503.500000	0.467000   
504.000000	0.431000   
504.500000	0.524000   
505.000000	0.410000   
505.500000	0.330000   
506.000000	0.388000   
506.500000	0.473000   
507.000000	0.400000   
507.500000	0.424000   
508.000000	0.421000   
508.500000	0.426000   
509.000000	0.441000   
509.500000	0.449000   
510.000000	0.299000   
510.500000	0.427000   
511.000000	0.438000   
511.500000	0.406000   
512.000000	0.376000   
512.500000	0.437000   
513.000000	0.461000   
513.500000	0.441000   
514.000000	0.378000   
514.500000	0.485000   
515.000000	0.410000   
515.500000	0.440000   
516.000000	0.407000   
516.500000	0.501000   
517.000000	0.338000   
517.500000	0.421000   
518.000000	0.466000   
518.500000	0.434000   
519.000000	0.474000   
519.500000	0.470000   
520.000000	0.521000   
520.500000	0.499000   
521.000000	0.377000   
521.500000	0.369000   
522.000000	0.418000   
522.500000	0.304000   
523.000000	0.320000   
523.500000	0.416000   
524.000000	0.385000   
524.500000	0.381000   
525.000000	0.404000   
525.500000	0.408000   
526.000000	0.385000   
526.500000	0.428000   
527.000000	0.354000   
527.500000	0.377000   
528.000000	0.417000   
528.500000	0.513000   
529.000000	0.364000   
529.500000	0.317000   
530.000000	0.315000   
530.500000	0.302000   
531.000000	0.424000   
531.500000	0.399000   
532.000000	0.311000   
532.500000	0.432000   
533.000000	0.291000   
533.500000	0.316000   
534.000000	0.242000   
534.500000	0.258000   
535.000000	0.317000   
535.500000	0.375000   
536.000000	0.339000   
536.500000	0.334000   
537.000000	0.315000   
537.500000	0.308000   
538.000000	0.278000   
538.500000	0.288000   
539.000000	0.306000   
539.500000	0.327000   
540.000000	0.363000   
540.500000	0.283000   
541.000000	0.267000   
541.500000	0.389000   
542.000000	0.208000   
542.500000	0.239000   
543.000000	0.339000   
543.500000	0.279000   
544.000000	0.365000   
544.500000	0.302000   
545.000000	0.193000   
545.500000	0.220000   
546.000000	0.215000   
546.500000	0.292000   
547.000000	0.251000   
547.500000	0.256000   
548.000000	0.273000   
548.500000	0.242000   

