PE FL                   SPECTRUM    ASCII       PEDS        1.60        
  -1
0184FD~1.SP
19/01/24
10:24:52.00
19/01/24
10:24:52.00


548.500000
1









LS45
315.00
10.00
10.00
SCAN
1
16
100
100
0
600
0
1
0
1
7
ON
435 365 
0 0 0
#HDR
-1
-1
#GR
NM
INT 
0.00002384185791015625
0.0
230.000000
0.500000
638
8
521.472000
0.181000
#DATA
230.000000	0.435000   
230.500000	0.334000   
231.000000	0.264000   
231.500000	0.242000   
232.000000	0.223000   
232.500000	0.208000   
233.000000	0.345000   
233.500000	0.325000   
234.000000	0.259000   
234.500000	0.181000   
235.000000	0.298000   
235.500000	0.316000   
236.000000	0.186000   
236.500000	0.252000   
237.000000	0.357000   
237.500000	0.337000   
238.000000	0.204000   
238.500000	0.281000   
239.000000	0.336000   
239.500000	0.205000   
240.000000	0.300000   
240.500000	0.215000   
241.000000	0.286000   
241.500000	0.323000   
242.000000	0.244000   
242.500000	0.278000   
243.000000	0.252000   
243.500000	0.371000   
244.000000	0.377000   
244.500000	0.252000   
245.000000	0.342000   
245.500000	0.340000   
246.000000	0.256000   
246.500000	0.300000   
247.000000	0.286000   
247.500000	0.334000   
248.000000	0.340000   
248.500000	0.415000   
249.000000	0.426000   
249.500000	0.462000   
250.000000	0.437000   
250.500000	0.399000   
251.000000	0.389000   
251.500000	0.415000   
252.000000	0.432000   
252.500000	0.458000   
253.000000	0.446000   
253.500000	0.370000   
254.000000	0.401000   
254.500000	0.403000   
255.000000	0.465000   
255.500000	0.297000   
256.000000	0.425000   
256.500000	0.459000   
257.000000	0.448000   
257.500000	0.449000   
258.000000	0.447000   
258.500000	0.461000   
259.000000	0.310000   
259.500000	0.461000   
260.000000	0.477000   
260.500000	0.533000   
261.000000	0.574000   
261.500000	0.526000   
262.000000	0.542000   
262.500000	0.541000   
263.000000	0.553000   
263.500000	0.676000   
264.000000	0.519000   
264.500000	0.436000   
265.000000	0.398000   
265.500000	0.556000   
266.000000	0.414000   
266.500000	0.516000   
267.000000	0.552000   
267.500000	0.680000   
268.000000	0.546000   
268.500000	0.513000   
269.000000	0.655000   
269.500000	0.621000   
270.000000	0.639000   
270.500000	0.733000   
271.000000	0.741000   
271.500000	0.690999   
272.000000	0.750000   
272.500000	0.845000   
273.000000	0.744000   
273.500000	0.717000   
274.000000	0.837000   
274.500000	0.883000   
275.000000	0.961000   
275.500000	0.850000   
276.000000	0.755000   
276.500000	0.798000   
277.000000	1.012000   
277.500000	0.869000   
278.000000	1.103000   
278.500000	1.078000   
279.000000	0.954000   
279.500000	1.216000   
280.000000	1.216000   
280.500000	1.261000   
281.000000	1.054000   
281.500000	1.015000   
282.000000	1.060000   
282.500000	1.226000   
283.000000	1.357000   
283.500000	1.408000   
284.000000	1.526000   
284.500000	1.180000   
285.000000	1.247000   
285.500000	1.574000   
286.000000	1.713000   
286.500000	1.634000   
287.000000	1.822000   
287.500000	1.966000   
288.000000	1.715000   
288.500000	1.912000   
289.000000	1.940000   
289.500000	2.146000   
290.000000	2.109000   
290.500000	2.104000   
291.000000	2.483000   
291.500000	2.575000   
292.000000	2.778000   
292.500000	3.175000   
293.000000	3.950000   
293.500000	4.956000   
294.000000	5.669000   
294.500000	6.566000   
295.000000	8.550000   
295.500000	11.046000  
296.000000	13.509000  
296.500000	17.906000  
297.000000	22.275000  
297.500000	28.252000  
298.000000	33.237000  
298.500000	41.000000  
299.000000	49.157000  
299.500000	60.882000  
300.000000	71.343999  
300.500000	86.682000  
301.000000	101.751000 
301.500000	116.999000 
302.000000	132.011000 
302.500000	146.805000 
303.000000	170.202000 
303.500000	188.257000 
304.000000	217.459000 
304.500000	235.158000 
305.000000	263.747000 
305.500000	284.734000 
306.000000	312.440000 
306.500000	337.240000 
307.000000	362.054000 
307.500000	389.044000 
308.000000	412.721000 
308.500000	433.803000 
309.000000	453.539000 
309.500000	473.713000 
310.000000	484.876000 
310.500000	496.958000 
311.000000	511.044000 
311.500000	515.120000 
312.000000	521.472000 
312.500000	520.933000 
313.000000	519.455000 
313.500000	515.124000 
314.000000	510.499000 
314.500000	497.350000 
315.000000	485.636000 
315.500000	465.083000 
316.000000	450.863000 
316.500000	427.332000 
317.000000	406.789000 
317.500000	381.584000 
318.000000	361.295000 
318.500000	337.534000 
319.000000	311.542000 
319.500000	289.636000 
320.000000	258.380000 
320.500000	232.682000 
321.000000	207.470000 
321.500000	185.563000 
322.000000	164.006000 
322.500000	146.173000 
323.000000	125.322000 
323.500000	108.630000 
324.000000	90.327000  
324.500000	76.430000  
325.000000	64.401000  
325.500000	56.138000  
326.000000	44.817000  
326.500000	39.875000  
327.000000	33.586000  
327.500000	26.641000  
328.000000	22.035000  
328.500000	19.124000  
329.000000	16.099000  
329.500000	13.618000  
330.000000	12.246000  
330.500000	12.410000  
331.000000	12.703000  
331.500000	13.312000  
332.000000	13.295000  
332.500000	14.127000  
333.000000	15.765000  
333.500000	16.381000  
334.000000	17.675000  
334.500000	19.010000  
335.000000	21.117000  
335.500000	24.115000  
336.000000	26.078000  
336.500000	28.847000  
337.000000	32.812000  
337.500000	35.349000  
338.000000	38.831000  
338.500000	43.802000  
339.000000	47.392000  
339.500000	50.806000  
340.000000	55.369000  
340.500000	59.709000  
341.000000	63.662000  
341.500000	69.290000  
342.000000	73.019000  
342.500000	76.185000  
343.000000	79.105999  
343.500000	83.919000  
344.000000	88.952000  
344.500000	93.217000  
345.000000	96.727000  
345.500000	98.394000  
346.000000	101.181000 
346.500000	104.282000 
347.000000	105.822000 
347.500000	106.627000 
348.000000	106.904000 
348.500000	107.043000 
349.000000	108.027000 
349.500000	104.946000 
350.000000	104.884000 
350.500000	100.661000 
351.000000	98.962999  
351.500000	97.052000  
352.000000	93.084000  
352.500000	91.238000  
353.000000	87.378000  
353.500000	83.327000  
354.000000	80.450999  
354.500000	74.996000  
355.000000	70.489000  
355.500000	65.914000  
356.000000	61.999000  
356.500000	58.115000  
357.000000	54.221000  
357.500000	49.155000  
358.000000	44.771000  
358.500000	40.295000  
359.000000	37.545000  
359.500000	34.174000  
360.000000	30.856000  
360.500000	26.943000  
361.000000	25.104000  
361.500000	23.592000  
362.000000	19.868000  
362.500000	16.863000  
363.000000	15.258000  
363.500000	13.712000  
364.000000	11.742000  
364.500000	10.528000  
365.000000	8.949999   
365.500000	8.640000   
366.000000	7.242000   
366.500000	6.417000   
367.000000	5.319000   
367.500000	5.095000   
368.000000	4.137000   
368.500000	4.190000   
369.000000	3.373000   
369.500000	2.869000   
370.000000	2.930000   
370.500000	2.479000   
371.000000	2.696000   
371.500000	2.442000   
372.000000	2.031000   
372.500000	1.882000   
373.000000	2.032000   
373.500000	1.995000   
374.000000	2.146000   
374.500000	2.062000   
375.000000	2.213000   
375.500000	1.891000   
376.000000	1.695000   
376.500000	1.936000   
377.000000	2.100000   
377.500000	1.868000   
378.000000	1.721000   
378.500000	1.527000   
379.000000	1.626000   
379.500000	1.763000   
380.000000	1.732000   
380.500000	1.786000   
381.000000	1.595000   
381.500000	1.578000   
382.000000	1.745000   
382.500000	1.694000   
383.000000	1.680000   
383.500000	1.617000   
384.000000	1.736000   
384.500000	1.585000   
385.000000	1.508000   
385.500000	1.451000   
386.000000	1.491000   
386.500000	1.386000   
387.000000	1.554000   
387.500000	1.675000   
388.000000	1.395000   
388.500000	1.457000   
389.000000	1.466000   
389.500000	1.626000   
390.000000	1.563000   
390.500000	1.693000   
391.000000	1.715000   
391.500000	1.603000   
392.000000	1.749000   
392.500000	1.643000   
393.000000	1.469000   
393.500000	1.524000   
394.000000	1.604000   
394.500000	1.536000   
395.000000	1.592000   
395.500000	1.452000   
396.000000	1.469000   
396.500000	1.487000   
397.000000	1.524000   
397.500000	1.463000   
398.000000	1.395000   
398.500000	1.468000   
399.000000	1.475000   
399.500000	1.340000   
400.000000	1.604000   
400.500000	1.534000   
401.000000	1.428000   
401.500000	1.483000   
402.000000	1.434000   
402.500000	1.619000   
403.000000	1.604000   
403.500000	1.539000   
404.000000	1.487000   
404.500000	1.591000   
405.000000	1.313000   
405.500000	1.354000   
406.000000	1.357000   
406.500000	1.547000   
407.000000	1.472000   
407.500000	1.389000   
408.000000	1.218000   
408.500000	1.449000   
409.000000	1.469000   
409.500000	1.371000   
410.000000	1.417000   
410.500000	1.394000   
411.000000	1.498000   
411.500000	1.459000   
412.000000	1.237000   
412.500000	1.429000   
413.000000	1.302000   
413.500000	1.299000   
414.000000	1.348000   
414.500000	1.500000   
415.000000	1.335000   
415.500000	1.382000   
416.000000	1.304000   
416.500000	1.193000   
417.000000	1.132000   
417.500000	1.366000   
418.000000	1.271000   
418.500000	1.328000   
419.000000	1.145000   
419.500000	1.307000   
420.000000	1.198000   
420.500000	1.342000   
421.000000	1.083000   
421.500000	1.322000   
422.000000	1.233000   
422.500000	1.060000   
423.000000	1.275000   
423.500000	1.316000   
424.000000	1.148000   
424.500000	1.273000   
425.000000	1.125000   
425.500000	1.062000   
426.000000	0.996000   
426.500000	1.165000   
427.000000	1.452000   
427.500000	1.293000   
428.000000	1.219000   
428.500000	1.231000   
429.000000	1.363000   
429.500000	1.311000   
430.000000	1.090000   
430.500000	1.147000   
431.000000	1.241000   
431.500000	1.312000   
432.000000	1.121000   
432.500000	1.104000   
433.000000	1.205000   
433.500000	1.220000   
434.000000	1.104000   
434.500000	1.069000   
435.000000	1.132000   
435.500000	1.208000   
436.000000	1.144000   
436.500000	1.119000   
437.000000	1.102000   
437.500000	1.086000   
438.000000	0.914000   
438.500000	1.136000   
439.000000	1.205000   
439.500000	0.961000   
440.000000	1.058000   
440.500000	1.155000   
441.000000	1.351000   
441.500000	1.286000   
442.000000	1.078000   
442.500000	1.122000   
443.000000	1.110000   
443.500000	1.303000   
444.000000	1.048000   
444.500000	1.104000   
445.000000	0.905000   
445.500000	0.916000   
446.000000	0.894000   
446.500000	1.162000   
447.000000	1.062000   
447.500000	0.805000   
448.000000	1.046000   
448.500000	1.072000   
449.000000	1.069000   
449.500000	1.125000   
450.000000	1.044000   
450.500000	0.930000   
451.000000	1.152000   
451.500000	1.056000   
452.000000	1.129000   
452.500000	1.019000   
453.000000	1.001000   
453.500000	1.153000   
454.000000	1.106000   
454.500000	1.128000   
455.000000	1.119000   
455.500000	1.050000   
456.000000	1.186000   
456.500000	1.238000   
457.000000	1.093000   
457.500000	1.240000   
458.000000	1.201000   
458.500000	1.283000   
459.000000	1.172000   
459.500000	1.302000   
460.000000	1.177000   
460.500000	1.120000   
461.000000	1.065000   
461.500000	1.250000   
462.000000	1.293000   
462.500000	1.079000   
463.000000	1.021000   
463.500000	1.113000   
464.000000	1.226000   
464.500000	1.094000   
465.000000	1.104000   
465.500000	0.991000   
466.000000	1.179000   
466.500000	1.203000   
467.000000	1.154000   
467.500000	1.087000   
468.000000	1.137000   
468.500000	0.920000   
469.000000	1.155000   
469.500000	1.085000   
470.000000	1.009000   
470.500000	1.142000   
471.000000	0.968000   
471.500000	0.938999   
472.000000	0.964000   
472.500000	1.110000   
473.000000	0.983000   
473.500000	0.952000   
474.000000	0.995000   
474.500000	1.020000   
475.000000	0.979000   
475.500000	1.029000   
476.000000	0.986000   
476.500000	1.045000   
477.000000	0.994000   
477.500000	0.703000   
478.000000	0.896000   
478.500000	0.868000   
479.000000	1.006000   
479.500000	0.897000   
480.000000	1.030000   
480.500000	0.679000   
481.000000	0.820000   
481.500000	0.963000   
482.000000	1.127000   
482.500000	1.156000   
483.000000	0.910000   
483.500000	1.054000   
484.000000	1.080000   
484.500000	1.151000   
485.000000	1.012000   
485.500000	1.030000   
486.000000	1.219000   
486.500000	1.035000   
487.000000	1.090000   
487.500000	1.033000   
488.000000	0.916000   
488.500000	0.938999   
489.000000	0.892000   
489.500000	1.082000   
490.000000	1.326000   
490.500000	1.158000   
491.000000	1.228000   
491.500000	1.143000   
492.000000	1.207000   
492.500000	1.125000   
493.000000	1.098000   
493.500000	1.471000   
494.000000	1.271000   
494.500000	1.428000   
495.000000	1.362000   
495.500000	1.272000   
496.000000	1.061000   
496.500000	1.191000   
497.000000	1.215000   
497.500000	1.220000   
498.000000	1.297000   
498.500000	1.018000   
499.000000	1.015000   
499.500000	1.016000   
500.000000	0.825000   
500.500000	0.893000   
501.000000	1.100000   
501.500000	0.806000   
502.000000	1.133000   
502.500000	1.006000   
503.000000	0.964000   
503.500000	0.968000   
504.000000	0.908000   
504.500000	0.885000   
505.000000	0.959000   
505.500000	1.060000   
506.000000	0.832000   
506.500000	0.744000   
507.000000	0.841000   
507.500000	0.827000   
508.000000	0.849000   
508.500000	0.786000   
509.000000	0.718000   
509.500000	0.709000   
510.000000	0.854000   
510.500000	0.964000   
511.000000	0.933000   
511.500000	0.962000   
512.000000	0.845000   
512.500000	0.806000   
513.000000	0.911000   
513.500000	0.876000   
514.000000	0.834000   
514.500000	0.862000   
515.000000	0.960000   
515.500000	0.955000   
516.000000	0.888000   
516.500000	0.887000   
517.000000	0.888000   
517.500000	0.979000   
518.000000	1.079000   
518.500000	0.920000   
519.000000	0.993000   
519.500000	0.916000   
520.000000	1.100000   
520.500000	0.837000   
521.000000	1.033000   
521.500000	1.020000   
522.000000	0.997000   
522.500000	0.883000   
523.000000	0.910000   
523.500000	0.901000   
524.000000	0.850000   
524.500000	0.827000   
525.000000	0.973000   
525.500000	0.987000   
526.000000	0.844000   
526.500000	0.907000   
527.000000	0.790000   
527.500000	0.832000   
528.000000	0.835000   
528.500000	0.938999   
529.000000	0.817999   
529.500000	0.955000   
530.000000	0.765000   
530.500000	0.741000   
531.000000	0.989000   
531.500000	0.942999   
532.000000	0.813999   
532.500000	0.698000   
533.000000	0.911000   
533.500000	0.993000   
534.000000	0.932000   
534.500000	0.809000   
535.000000	0.899000   
535.500000	0.902000   
536.000000	0.995000   
536.500000	0.754000   
537.000000	0.903000   
537.500000	0.839000   
538.000000	0.935000   
538.500000	0.919000   
539.000000	0.864000   
539.500000	0.863000   
540.000000	0.880000   
540.500000	0.973000   
541.000000	0.954000   
541.500000	1.084000   
542.000000	0.989000   
542.500000	0.836000   
543.000000	0.733000   
543.500000	0.839000   
544.000000	0.867000   
544.500000	0.755000   
545.000000	0.923000   
545.500000	0.845000   
546.000000	0.916000   
546.500000	0.871000   
547.000000	0.710000   
547.500000	0.774000   
548.000000	0.761000   
548.500000	0.883000   

