PE FL                   SPECTRUM    ASCII       PEDS        1.60        
  -1
0168F1~1.SP
19/01/24
10:27:08.00
19/01/24
10:27:08.00


548.500000
1









LS45
330.00
10.00
10.00
SCAN
1
16
100
100
0
600
0
1
0
1
7
ON
435 365 
0 0 0
#HDR
-1
-1
#GR
NM
INT 
0.00002384185791015625
0.0
230.000000
0.500000
638
8
533.044000
0.121000
#DATA
230.000000	0.158000   
230.500000	0.202000   
231.000000	0.150000   
231.500000	0.152000   
232.000000	0.162000   
232.500000	0.196000   
233.000000	0.227000   
233.500000	0.274000   
234.000000	0.260000   
234.500000	0.153000   
235.000000	0.258000   
235.500000	0.240000   
236.000000	0.184000   
236.500000	0.132000   
237.000000	0.215000   
237.500000	0.184000   
238.000000	0.187000   
238.500000	0.221000   
239.000000	0.333000   
239.500000	0.350000   
240.000000	0.268000   
240.500000	0.182000   
241.000000	0.251000   
241.500000	0.284000   
242.000000	0.274000   
242.500000	0.193000   
243.000000	0.168000   
243.500000	0.184000   
244.000000	0.121000   
244.500000	0.188000   
245.000000	0.198000   
245.500000	0.251000   
246.000000	0.250000   
246.500000	0.273000   
247.000000	0.338000   
247.500000	0.205000   
248.000000	0.214000   
248.500000	0.211000   
249.000000	0.236000   
249.500000	0.240000   
250.000000	0.197000   
250.500000	0.235000   
251.000000	0.236000   
251.500000	0.313000   
252.000000	0.303000   
252.500000	0.395000   
253.000000	0.256000   
253.500000	0.312000   
254.000000	0.316000   
254.500000	0.309000   
255.000000	0.250000   
255.500000	0.222000   
256.000000	0.204000   
256.500000	0.373000   
257.000000	0.272000   
257.500000	0.308000   
258.000000	0.354000   
258.500000	0.314000   
259.000000	0.302000   
259.500000	0.305000   
260.000000	0.227000   
260.500000	0.353000   
261.000000	0.299000   
261.500000	0.289000   
262.000000	0.275000   
262.500000	0.251000   
263.000000	0.320000   
263.500000	0.423000   
264.000000	0.372000   
264.500000	0.264000   
265.000000	0.366000   
265.500000	0.406000   
266.000000	0.374000   
266.500000	0.321000   
267.000000	0.331000   
267.500000	0.286000   
268.000000	0.434000   
268.500000	0.333000   
269.000000	0.312000   
269.500000	0.423000   
270.000000	0.408000   
270.500000	0.530000   
271.000000	0.485000   
271.500000	0.472000   
272.000000	0.450000   
272.500000	0.591000   
273.000000	0.515000   
273.500000	0.554000   
274.000000	0.562999   
274.500000	0.541000   
275.000000	0.474000   
275.500000	0.511000   
276.000000	0.537000   
276.500000	0.506000   
277.000000	0.426000   
277.500000	0.469000   
278.000000	0.445000   
278.500000	0.576000   
279.000000	0.695000   
279.500000	0.641000   
280.000000	0.598000   
280.500000	0.687000   
281.000000	0.826000   
281.500000	0.691999   
282.000000	0.604000   
282.500000	0.570000   
283.000000	0.535000   
283.500000	0.529000   
284.000000	0.738000   
284.500000	0.737000   
285.000000	0.751000   
285.500000	0.849000   
286.000000	0.823000   
286.500000	0.848000   
287.000000	0.850000   
287.500000	0.723000   
288.000000	0.769000   
288.500000	0.965000   
289.000000	0.951000   
289.500000	0.827000   
290.000000	0.892000   
290.500000	1.175000   
291.000000	1.110000   
291.500000	1.097000   
292.000000	1.187000   
292.500000	1.181000   
293.000000	1.172000   
293.500000	1.159000   
294.000000	1.094000   
294.500000	1.398000   
295.000000	1.318000   
295.500000	1.207000   
296.000000	1.336000   
296.500000	1.245000   
297.000000	1.328000   
297.500000	1.448000   
298.000000	1.545000   
298.500000	1.609000   
299.000000	1.729000   
299.500000	1.698000   
300.000000	1.611000   
300.500000	1.520000   
301.000000	1.771000   
301.500000	2.065000   
302.000000	1.916000   
302.500000	1.746000   
303.000000	2.111000   
303.500000	2.204000   
304.000000	2.266000   
304.500000	2.383000   
305.000000	2.308000   
305.500000	2.773000   
306.000000	2.902000   
306.500000	3.086000   
307.000000	3.035000   
307.500000	3.751000   
308.000000	3.807000   
308.500000	4.851000   
309.000000	6.049000   
309.500000	7.897000   
310.000000	9.118000   
310.500000	11.712000  
311.000000	14.925000  
311.500000	20.039000  
312.000000	23.218000  
312.500000	30.788000  
313.000000	36.360000  
313.500000	44.862000  
314.000000	52.832000  
314.500000	64.236000  
315.000000	76.629000  
315.500000	94.092000  
316.000000	106.980000 
316.500000	125.639000 
317.000000	142.867000 
317.500000	163.147000 
318.000000	183.210000 
318.500000	209.415000 
319.000000	229.985000 
319.500000	251.916000 
320.000000	284.319000 
320.500000	307.563000 
321.000000	333.966000 
321.500000	357.915000 
322.000000	386.344000 
322.500000	408.684000 
323.000000	435.925000 
323.500000	457.160000 
324.000000	475.107000 
324.500000	490.794000 
325.000000	507.022000 
325.500000	512.264000 
326.000000	525.027000 
326.500000	529.234000 
327.000000	532.405999 
327.500000	533.044000 
328.000000	526.381999 
328.500000	519.102000 
329.000000	512.115000 
329.500000	493.815000 
330.000000	482.583000 
330.500000	464.960000 
331.000000	445.049000 
331.500000	422.905000 
332.000000	394.129000 
332.500000	369.031000 
333.000000	343.166000 
333.500000	317.174000 
334.000000	297.300000 
334.500000	270.019000 
335.000000	247.157000 
335.500000	217.971000 
336.000000	199.716000 
336.500000	173.465000 
337.000000	153.381000 
337.500000	129.582000 
338.000000	114.700000 
338.500000	97.266000  
339.000000	84.758000  
339.500000	70.154000  
340.000000	61.073000  
340.500000	51.379000  
341.000000	43.965000  
341.500000	35.643000  
342.000000	27.995000  
342.500000	23.517000  
343.000000	19.585000  
343.500000	15.899000  
344.000000	13.585000  
344.500000	11.963000  
345.000000	10.710000  
345.500000	9.441000   
346.000000	9.026000   
346.500000	8.731999   
347.000000	8.132000   
347.500000	8.367000   
348.000000	8.308999   
348.500000	8.468000   
349.000000	8.850000   
349.500000	8.917999   
350.000000	9.757999   
350.500000	11.130000  
351.000000	12.163000  
351.500000	12.924000  
352.000000	13.591000  
352.500000	15.845000  
353.000000	17.565000  
353.500000	18.057000  
354.000000	20.778000  
354.500000	23.376000  
355.000000	26.263000  
355.500000	28.124000  
356.000000	29.536000  
356.500000	32.192000  
357.000000	35.836000  
357.500000	39.025000  
358.000000	41.058000  
358.500000	46.384000  
359.000000	48.396000  
359.500000	52.607000  
360.000000	55.739000  
360.500000	59.001000  
361.000000	61.617000  
361.500000	66.196000  
362.000000	68.669000  
362.500000	71.989000  
363.000000	74.839000  
363.500000	75.400000  
364.000000	76.518000  
364.500000	80.176000  
365.000000	82.301000  
365.500000	82.433000  
366.000000	83.925000  
366.500000	85.846000  
367.000000	85.382000  
367.500000	87.258000  
368.000000	85.932000  
368.500000	85.828000  
369.000000	83.903000  
369.500000	82.944999  
370.000000	80.420000  
370.500000	80.328000  
371.000000	76.611999  
371.500000	74.438000  
372.000000	72.008000  
372.500000	69.636000  
373.000000	68.027000  
373.500000	62.750000  
374.000000	61.158000  
374.500000	56.791000  
375.000000	53.954000  
375.500000	50.408000  
376.000000	45.195000  
376.500000	43.821000  
377.000000	40.609000  
377.500000	36.375000  
378.000000	33.053000  
378.500000	31.390000  
379.000000	28.893000  
379.500000	26.882000  
380.000000	23.814000  
380.500000	21.360000  
381.000000	19.114000  
381.500000	17.230000  
382.000000	14.976000  
382.500000	12.785000  
383.000000	11.521000  
383.500000	9.848000   
384.000000	8.679000   
384.500000	8.183000   
385.000000	6.828000   
385.500000	6.140000   
386.000000	5.535000   
386.500000	4.637000   
387.000000	4.674000   
387.500000	4.110000   
388.000000	3.477000   
388.500000	3.094000   
389.000000	2.931000   
389.500000	2.873000   
390.000000	2.320000   
390.500000	2.479000   
391.000000	2.030000   
391.500000	1.925000   
392.000000	2.275000   
392.500000	2.289000   
393.000000	1.986000   
393.500000	1.712000   
394.000000	1.569000   
394.500000	1.681000   
395.000000	1.559000   
395.500000	1.510000   
396.000000	1.630000   
396.500000	1.544000   
397.000000	1.624000   
397.500000	1.595000   
398.000000	1.540000   
398.500000	1.426000   
399.000000	1.499000   
399.500000	1.516000   
400.000000	1.656000   
400.500000	1.567000   
401.000000	1.547000   
401.500000	1.510000   
402.000000	1.602000   
402.500000	1.533000   
403.000000	1.667000   
403.500000	1.444000   
404.000000	1.342000   
404.500000	1.294000   
405.000000	1.165000   
405.500000	1.245000   
406.000000	1.201000   
406.500000	1.270000   
407.000000	1.440000   
407.500000	1.383000   
408.000000	1.432000   
408.500000	1.434000   
409.000000	1.479000   
409.500000	1.377000   
410.000000	1.390000   
410.500000	1.187000   
411.000000	1.270000   
411.500000	1.162000   
412.000000	1.404000   
412.500000	1.434000   
413.000000	1.160000   
413.500000	1.400000   
414.000000	1.312000   
414.500000	1.269000   
415.000000	1.229000   
415.500000	1.302000   
416.000000	1.489000   
416.500000	1.140000   
417.000000	1.295000   
417.500000	1.348000   
418.000000	1.190000   
418.500000	1.244000   
419.000000	1.245000   
419.500000	1.365000   
420.000000	1.092000   
420.500000	1.105000   
421.000000	1.389000   
421.500000	1.144000   
422.000000	1.293000   
422.500000	1.051000   
423.000000	1.060000   
423.500000	1.246000   
424.000000	1.320000   
424.500000	1.313000   
425.000000	1.253000   
425.500000	1.173000   
426.000000	1.104000   
426.500000	1.204000   
427.000000	1.118000   
427.500000	1.105000   
428.000000	1.053000   
428.500000	1.144000   
429.000000	1.171000   
429.500000	1.261000   
430.000000	1.137000   
430.500000	1.117000   
431.000000	1.247000   
431.500000	1.051000   
432.000000	1.135000   
432.500000	0.967000   
433.000000	1.165000   
433.500000	0.999000   
434.000000	1.144000   
434.500000	1.132000   
435.000000	1.114000   
435.500000	0.831000   
436.000000	0.925000   
436.500000	0.936000   
437.000000	1.017000   
437.500000	0.882000   
438.000000	1.158000   
438.500000	0.985000   
439.000000	0.858000   
439.500000	0.882000   
440.000000	0.834000   
440.500000	1.106000   
441.000000	0.859000   
441.500000	0.797000   
442.000000	0.732000   
442.500000	0.763000   
443.000000	0.813999   
443.500000	0.893000   
444.000000	1.058000   
444.500000	1.059000   
445.000000	1.084000   
445.500000	0.862000   
446.000000	0.929000   
446.500000	1.052000   
447.000000	0.847000   
447.500000	0.870000   
448.000000	1.012000   
448.500000	0.979000   
449.000000	1.168000   
449.500000	0.803000   
450.000000	0.987000   
450.500000	1.130000   
451.000000	0.939999   
451.500000	0.808000   
452.000000	0.953000   
452.500000	1.031000   
453.000000	1.039000   
453.500000	0.934000   
454.000000	1.020000   
454.500000	1.074000   
455.000000	1.149000   
455.500000	0.937999   
456.000000	1.175000   
456.500000	0.937000   
457.000000	1.159000   
457.500000	1.044000   
458.000000	0.933000   
458.500000	0.973000   
459.000000	1.027000   
459.500000	0.928000   
460.000000	1.059000   
460.500000	1.063000   
461.000000	1.133000   
461.500000	0.918000   
462.000000	0.989000   
462.500000	1.032000   
463.000000	0.910000   
463.500000	0.852000   
464.000000	0.987000   
464.500000	0.857000   
465.000000	0.840000   
465.500000	0.916000   
466.000000	0.855000   
466.500000	0.871000   
467.000000	0.885000   
467.500000	0.956000   
468.000000	1.052000   
468.500000	0.784000   
469.000000	0.842000   
469.500000	0.751000   
470.000000	0.698000   
470.500000	0.765000   
471.000000	0.690999   
471.500000	0.779000   
472.000000	0.768000   
472.500000	0.730000   
473.000000	0.790000   
473.500000	0.971000   
474.000000	0.959000   
474.500000	1.051000   
475.000000	0.816999   
475.500000	0.634000   
476.000000	0.651000   
476.500000	0.865000   
477.000000	0.720000   
477.500000	0.809000   
478.000000	0.735000   
478.500000	0.715000   
479.000000	0.842000   
479.500000	0.727000   
480.000000	0.760000   
480.500000	0.768000   
481.000000	0.831000   
481.500000	0.951000   
482.000000	0.676000   
482.500000	0.625000   
483.000000	0.709000   
483.500000	0.831000   
484.000000	0.845000   
484.500000	0.770000   
485.000000	0.877000   
485.500000	1.010000   
486.000000	0.869000   
486.500000	0.703000   
487.000000	0.657000   
487.500000	0.715000   
488.000000	0.812000   
488.500000	0.807000   
489.000000	0.879000   
489.500000	0.861000   
490.000000	0.933000   
490.500000	1.048000   
491.000000	1.025000   
491.500000	0.863000   
492.000000	0.917000   
492.500000	1.009000   
493.000000	0.824000   
493.500000	0.687999   
494.000000	0.786000   
494.500000	0.773000   
495.000000	0.836000   
495.500000	0.854000   
496.000000	0.861000   
496.500000	0.874000   
497.000000	0.783000   
497.500000	0.919000   
498.000000	0.927000   
498.500000	0.884000   
499.000000	0.794000   
499.500000	0.723000   
500.000000	0.839000   
500.500000	0.654000   
501.000000	0.608000   
501.500000	0.701000   
502.000000	0.914000   
502.500000	0.756000   
503.000000	0.855000   
503.500000	0.767000   
504.000000	0.725000   
504.500000	0.641000   
505.000000	0.627000   
505.500000	0.879000   
506.000000	0.825000   
506.500000	0.740000   
507.000000	0.882000   
507.500000	0.728000   
508.000000	0.564999   
508.500000	0.610000   
509.000000	0.761000   
509.500000	0.651000   
510.000000	0.755000   
510.500000	0.832000   
511.000000	0.612000   
511.500000	0.627000   
512.000000	0.712000   
512.500000	0.806000   
513.000000	0.780000   
513.500000	0.682000   
514.000000	0.651000   
514.500000	0.737000   
515.000000	0.743000   
515.500000	0.719000   
516.000000	0.679000   
516.500000	0.628000   
517.000000	0.681000   
517.500000	0.763000   
518.000000	0.774000   
518.500000	0.726000   
519.000000	1.014000   
519.500000	0.704000   
520.000000	0.701000   
520.500000	0.736000   
521.000000	0.751000   
521.500000	0.607000   
522.000000	0.717000   
522.500000	0.735000   
523.000000	0.661000   
523.500000	0.628000   
524.000000	0.513000   
524.500000	0.646000   
525.000000	0.534000   
525.500000	0.715000   
526.000000	0.609000   
526.500000	0.631000   
527.000000	0.794000   
527.500000	0.573000   
528.000000	0.543000   
528.500000	0.575000   
529.000000	0.547000   
529.500000	0.695000   
530.000000	0.644000   
530.500000	0.730000   
531.000000	0.505000   
531.500000	0.695000   
532.000000	0.610000   
532.500000	0.688999   
533.000000	0.658000   
533.500000	0.907000   
534.000000	0.656000   
534.500000	0.675000   
535.000000	0.709000   
535.500000	0.562999   
536.000000	0.481000   
536.500000	0.563999   
537.000000	0.499000   
537.500000	0.567999   
538.000000	0.617000   
538.500000	0.607000   
539.000000	0.712000   
539.500000	0.521000   
540.000000	0.489000   
540.500000	0.618000   
541.000000	0.677000   
541.500000	0.585000   
542.000000	0.616000   
542.500000	0.465000   
543.000000	0.350000   
543.500000	0.602000   
544.000000	0.669000   
544.500000	0.586000   
545.000000	0.584000   
545.500000	0.540000   
546.000000	0.633000   
546.500000	0.556000   
547.000000	0.514000   
547.500000	0.603000   
548.000000	0.473000   
548.500000	0.633000   

