PE FL                   SPECTRUM    ASCII       PEDS        1.60        
  -1
0188FD~1.SP
19/01/24
10:32:24.00
19/01/24
10:32:24.00


548.500000
1









LS45
365.00
10.00
10.00
SCAN
1
16
100
100
0
600
0
1
0
1
7
ON
435 365 
0 0 0
#HDR
-1
-1
#GR
NM
INT 
0.00002384185791015625
0.0
230.000000
0.500000
638
8
465.719000
0.065000
#DATA
230.000000	0.132000   
230.500000	0.094000   
231.000000	0.122000   
231.500000	0.116000   
232.000000	0.104000   
232.500000	0.077000   
233.000000	0.065000   
233.500000	0.122000   
234.000000	0.100000   
234.500000	0.105000   
235.000000	0.128000   
235.500000	0.129000   
236.000000	0.092000   
236.500000	0.079000   
237.000000	0.124000   
237.500000	0.122000   
238.000000	0.156000   
238.500000	0.084000   
239.000000	0.066000   
239.500000	0.101000   
240.000000	0.126000   
240.500000	0.067000   
241.000000	0.113000   
241.500000	0.165000   
242.000000	0.156000   
242.500000	0.155000   
243.000000	0.069000   
243.500000	0.087999   
244.000000	0.171000   
244.500000	0.154000   
245.000000	0.116000   
245.500000	0.134000   
246.000000	0.154000   
246.500000	0.189000   
247.000000	0.096000   
247.500000	0.108000   
248.000000	0.132000   
248.500000	0.080000   
249.000000	0.095000   
249.500000	0.152000   
250.000000	0.109000   
250.500000	0.160000   
251.000000	0.102000   
251.500000	0.133000   
252.000000	0.095000   
252.500000	0.137000   
253.000000	0.219000   
253.500000	0.129000   
254.000000	0.127000   
254.500000	0.105000   
255.000000	0.100000   
255.500000	0.070000   
256.000000	0.098000   
256.500000	0.165000   
257.000000	0.138000   
257.500000	0.182000   
258.000000	0.147000   
258.500000	0.126000   
259.000000	0.185000   
259.500000	0.130000   
260.000000	0.164000   
260.500000	0.217000   
261.000000	0.107000   
261.500000	0.151000   
262.000000	0.127000   
262.500000	0.121000   
263.000000	0.124000   
263.500000	0.172000   
264.000000	0.231000   
264.500000	0.205000   
265.000000	0.139000   
265.500000	0.148000   
266.000000	0.126000   
266.500000	0.182000   
267.000000	0.178000   
267.500000	0.168000   
268.000000	0.172000   
268.500000	0.180000   
269.000000	0.225000   
269.500000	0.180000   
270.000000	0.250000   
270.500000	0.197000   
271.000000	0.212000   
271.500000	0.222000   
272.000000	0.193000   
272.500000	0.116000   
273.000000	0.214000   
273.500000	0.200000   
274.000000	0.209000   
274.500000	0.244000   
275.000000	0.184000   
275.500000	0.162000   
276.000000	0.207000   
276.500000	0.243000   
277.000000	0.252000   
277.500000	0.188000   
278.000000	0.253000   
278.500000	0.300000   
279.000000	0.190000   
279.500000	0.140000   
280.000000	0.158000   
280.500000	0.155000   
281.000000	0.182000   
281.500000	0.218000   
282.000000	0.215000   
282.500000	0.214000   
283.000000	0.241000   
283.500000	0.257000   
284.000000	0.284000   
284.500000	0.263000   
285.000000	0.269000   
285.500000	0.203000   
286.000000	0.165000   
286.500000	0.238000   
287.000000	0.294000   
287.500000	0.196000   
288.000000	0.274000   
288.500000	0.195000   
289.000000	0.316000   
289.500000	0.251000   
290.000000	0.236000   
290.500000	0.237000   
291.000000	0.224000   
291.500000	0.247000   
292.000000	0.193000   
292.500000	0.283000   
293.000000	0.286000   
293.500000	0.336000   
294.000000	0.346000   
294.500000	0.316000   
295.000000	0.310000   
295.500000	0.200000   
296.000000	0.272000   
296.500000	0.352000   
297.000000	0.373000   
297.500000	0.353000   
298.000000	0.375000   
298.500000	0.355000   
299.000000	0.287000   
299.500000	0.408000   
300.000000	0.434000   
300.500000	0.344000   
301.000000	0.307000   
301.500000	0.225000   
302.000000	0.407000   
302.500000	0.353000   
303.000000	0.349000   
303.500000	0.446000   
304.000000	0.382000   
304.500000	0.360000   
305.000000	0.449000   
305.500000	0.441000   
306.000000	0.450000   
306.500000	0.449000   
307.000000	0.470000   
307.500000	0.393000   
308.000000	0.366000   
308.500000	0.383000   
309.000000	0.401000   
309.500000	0.457000   
310.000000	0.563999   
310.500000	0.349000   
311.000000	0.419000   
311.500000	0.567999   
312.000000	0.604000   
312.500000	0.534000   
313.000000	0.395000   
313.500000	0.450000   
314.000000	0.641000   
314.500000	0.557000   
315.000000	0.524000   
315.500000	0.467000   
316.000000	0.657000   
316.500000	0.659000   
317.000000	0.606000   
317.500000	0.710000   
318.000000	0.706000   
318.500000	0.537000   
319.000000	0.701000   
319.500000	0.665000   
320.000000	0.751000   
320.500000	0.639000   
321.000000	0.754000   
321.500000	0.685000   
322.000000	0.776000   
322.500000	0.725000   
323.000000	0.793000   
323.500000	0.854000   
324.000000	0.871000   
324.500000	1.101000   
325.000000	0.773000   
325.500000	0.731000   
326.000000	0.936000   
326.500000	1.139000   
327.000000	1.074000   
327.500000	1.013000   
328.000000	1.107000   
328.500000	1.008000   
329.000000	1.046000   
329.500000	1.118000   
330.000000	1.233000   
330.500000	1.217000   
331.000000	1.434000   
331.500000	1.355000   
332.000000	1.367000   
332.500000	1.396000   
333.000000	1.525000   
333.500000	1.492000   
334.000000	1.500000   
334.500000	1.629000   
335.000000	1.687000   
335.500000	1.588000   
336.000000	1.719000   
336.500000	1.719000   
337.000000	1.701000   
337.500000	1.789000   
338.000000	2.017000   
338.500000	2.090000   
339.000000	2.017000   
339.500000	1.909000   
340.000000	2.016000   
340.500000	2.418000   
341.000000	2.831000   
341.500000	2.916000   
342.000000	3.469000   
342.500000	3.964000   
343.000000	4.932000   
343.500000	5.963000   
344.000000	7.896000   
344.500000	9.821999   
345.000000	12.187000  
345.500000	15.575000  
346.000000	20.739000  
346.500000	25.854000  
347.000000	32.270000  
347.500000	38.778000  
348.000000	49.055000  
348.500000	57.500000  
349.000000	69.176000  
349.500000	78.967000  
350.000000	93.438999  
350.500000	108.058000 
351.000000	130.037000 
351.500000	144.040000 
352.000000	165.708000 
352.500000	184.707000 
353.000000	208.999000 
353.500000	228.484000 
354.000000	253.842000 
354.500000	273.150000 
355.000000	297.589000 
355.500000	325.640000 
356.000000	349.125000 
356.500000	363.336000 
357.000000	383.539000 
357.500000	401.080000 
358.000000	414.758000 
358.500000	429.113000 
359.000000	445.109000 
359.500000	449.968000 
360.000000	460.097000 
360.500000	464.181000 
361.000000	464.312000 
361.500000	465.719000 
362.000000	460.553000 
362.500000	455.704000 
363.000000	446.677000 
363.500000	436.723000 
364.000000	427.188000 
364.500000	411.908000 
365.000000	394.249000 
365.500000	378.316000 
366.000000	358.580000 
366.500000	337.503000 
367.000000	318.605000 
367.500000	297.378000 
368.000000	270.683000 
368.500000	252.423000 
369.000000	227.268000 
369.500000	207.311000 
370.000000	182.297000 
370.500000	168.083000 
371.000000	146.059000 
371.500000	130.986000 
372.000000	114.163000 
372.500000	101.080000 
373.000000	86.334999  
373.500000	74.049000  
374.000000	61.910000  
374.500000	51.913000  
375.000000	41.931000  
375.500000	35.886000  
376.000000	29.718000  
376.500000	23.903000  
377.000000	19.475000  
377.500000	16.072000  
378.000000	13.404000  
378.500000	10.854000  
379.000000	9.353000   
379.500000	8.101000   
380.000000	7.022000   
380.500000	5.818000   
381.000000	5.784000   
381.500000	5.033000   
382.000000	4.616000   
382.500000	4.355000   
383.000000	4.502000   
383.500000	4.528000   
384.000000	4.200000   
384.500000	4.144000   
385.000000	4.284000   
385.500000	4.132000   
386.000000	3.813000   
386.500000	3.733000   
387.000000	3.617000   
387.500000	4.062000   
388.000000	3.941000   
388.500000	3.798000   
389.000000	3.894000   
389.500000	3.872000   
390.000000	3.673000   
390.500000	3.478000   
391.000000	3.695000   
391.500000	4.075000   
392.000000	3.905000   
392.500000	3.693000   
393.000000	4.181000   
393.500000	4.370000   
394.000000	4.527000   
394.500000	5.009000   
395.000000	5.330000   
395.500000	5.918000   
396.000000	6.410000   
396.500000	7.363000   
397.000000	8.214000   
397.500000	9.185000   
398.000000	9.829000   
398.500000	10.682000  
399.000000	11.681000  
399.500000	13.364000  
400.000000	14.584000  
400.500000	16.509000  
401.000000	17.574000  
401.500000	19.144000  
402.000000	21.263000  
402.500000	23.013000  
403.000000	24.922000  
403.500000	26.470000  
404.000000	29.352000  
404.500000	30.769000  
405.000000	32.588000  
405.500000	34.862000  
406.000000	37.131000  
406.500000	39.591000  
407.000000	41.038000  
407.500000	42.128000  
408.000000	43.844000  
408.500000	46.164000  
409.000000	47.454000  
409.500000	48.524000  
410.000000	50.149000  
410.500000	50.647000  
411.000000	51.789000  
411.500000	52.433000  
412.000000	53.153000  
412.500000	52.647000  
413.000000	52.974000  
413.500000	52.170000  
414.000000	51.494000  
414.500000	50.424000  
415.000000	49.214000  
415.500000	48.798000  
416.000000	48.313000  
416.500000	46.926000  
417.000000	45.481000  
417.500000	41.880000  
418.000000	41.515000  
418.500000	39.185000  
419.000000	37.113000  
419.500000	35.915000  
420.000000	34.067000  
420.500000	31.343000  
421.000000	29.260000  
421.500000	26.979000  
422.000000	23.910000  
422.500000	22.944000  
423.000000	20.438000  
423.500000	18.913000  
424.000000	17.671000  
424.500000	15.528000  
425.000000	14.123000  
425.500000	12.206000  
426.000000	11.101000  
426.500000	9.914000   
427.000000	8.465000   
427.500000	7.861000   
428.000000	7.119000   
428.500000	6.246000   
429.000000	5.776000   
429.500000	4.921000   
430.000000	4.136000   
430.500000	3.768000   
431.000000	3.459000   
431.500000	2.895000   
432.000000	2.758000   
432.500000	2.412000   
433.000000	2.026000   
433.500000	2.111000   
434.000000	1.919000   
434.500000	1.713000   
435.000000	1.626000   
435.500000	1.366000   
436.000000	1.519000   
436.500000	1.438000   
437.000000	1.299000   
437.500000	1.153000   
438.000000	1.166000   
438.500000	1.131000   
439.000000	1.046000   
439.500000	0.990000   
440.000000	1.227000   
440.500000	1.050000   
441.000000	1.101000   
441.500000	0.762000   
442.000000	0.923000   
442.500000	1.095000   
443.000000	1.021000   
443.500000	1.021000   
444.000000	0.953000   
444.500000	0.930000   
445.000000	1.136000   
445.500000	0.928000   
446.000000	0.777000   
446.500000	0.770000   
447.000000	0.915000   
447.500000	0.986000   
448.000000	1.009000   
448.500000	0.858000   
449.000000	0.870000   
449.500000	0.851000   
450.000000	0.890000   
450.500000	0.804000   
451.000000	0.913000   
451.500000	0.913000   
452.000000	0.993000   
452.500000	0.896000   
453.000000	0.754000   
453.500000	0.788000   
454.000000	1.011000   
454.500000	0.901000   
455.000000	0.784000   
455.500000	0.766000   
456.000000	0.932000   
456.500000	0.904000   
457.000000	0.979000   
457.500000	0.831000   
458.000000	1.080000   
458.500000	0.984000   
459.000000	0.902000   
459.500000	0.814999   
460.000000	0.962000   
460.500000	0.907000   
461.000000	0.928000   
461.500000	0.844000   
462.000000	0.783000   
462.500000	0.788000   
463.000000	0.725000   
463.500000	0.802000   
464.000000	0.717000   
464.500000	0.812000   
465.000000	0.801000   
465.500000	0.728000   
466.000000	0.728000   
466.500000	0.708000   
467.000000	0.673000   
467.500000	0.713000   
468.000000	0.798000   
468.500000	0.710000   
469.000000	0.612000   
469.500000	0.711000   
470.000000	0.782000   
470.500000	0.734000   
471.000000	0.770000   
471.500000	0.689999   
472.000000	0.729000   
472.500000	0.650000   
473.000000	0.563999   
473.500000	0.720000   
474.000000	0.687999   
474.500000	0.503000   
475.000000	0.708000   
475.500000	0.715000   
476.000000	0.732000   
476.500000	0.756000   
477.000000	0.732000   
477.500000	0.730000   
478.000000	0.654000   
478.500000	0.706000   
479.000000	0.576000   
479.500000	0.679000   
480.000000	0.603000   
480.500000	0.553000   
481.000000	0.639000   
481.500000	0.644000   
482.000000	0.597000   
482.500000	0.676000   
483.000000	0.570000   
483.500000	0.619000   
484.000000	0.672000   
484.500000	0.564999   
485.000000	0.718000   
485.500000	0.631000   
486.000000	0.696000   
486.500000	0.850000   
487.000000	0.704000   
487.500000	0.707000   
488.000000	0.651000   
488.500000	0.736000   
489.000000	0.662000   
489.500000	0.615000   
490.000000	0.515000   
490.500000	0.573000   
491.000000	0.711000   
491.500000	0.733000   
492.000000	0.743000   
492.500000	0.632000   
493.000000	0.605000   
493.500000	0.565999   
494.000000	0.621000   
494.500000	0.618000   
495.000000	0.534000   
495.500000	0.589000   
496.000000	0.657000   
496.500000	0.518000   
497.000000	0.648000   
497.500000	0.582000   
498.000000	0.593000   
498.500000	0.563999   
499.000000	0.564999   
499.500000	0.584000   
500.000000	0.558000   
500.500000	0.555000   
501.000000	0.640000   
501.500000	0.572000   
502.000000	0.504000   
502.500000	0.473000   
503.000000	0.508000   
503.500000	0.489000   
504.000000	0.418000   
504.500000	0.480000   
505.000000	0.464000   
505.500000	0.541000   
506.000000	0.476000   
506.500000	0.481000   
507.000000	0.565999   
507.500000	0.407000   
508.000000	0.427000   
508.500000	0.534000   
509.000000	0.484000   
509.500000	0.333000   
510.000000	0.430000   
510.500000	0.458000   
511.000000	0.446000   
511.500000	0.508000   
512.000000	0.537000   
512.500000	0.426000   
513.000000	0.557000   
513.500000	0.589000   
514.000000	0.576000   
514.500000	0.450000   
515.000000	0.423000   
515.500000	0.514000   
516.000000	0.479000   
516.500000	0.351000   
517.000000	0.464000   
517.500000	0.564999   
518.000000	0.599000   
518.500000	0.534000   
519.000000	0.518000   
519.500000	0.511000   
520.000000	0.452000   
520.500000	0.535000   
521.000000	0.442000   
521.500000	0.427000   
522.000000	0.384000   
522.500000	0.458000   
523.000000	0.486000   
523.500000	0.466000   
524.000000	0.423000   
524.500000	0.340000   
525.000000	0.511000   
525.500000	0.456000   
526.000000	0.540000   
526.500000	0.453000   
527.000000	0.596000   
527.500000	0.475000   
528.000000	0.306000   
528.500000	0.330000   
529.000000	0.464000   
529.500000	0.364000   
530.000000	0.428000   
530.500000	0.451000   
531.000000	0.468000   
531.500000	0.403000   
532.000000	0.378000   
532.500000	0.449000   
533.000000	0.386000   
533.500000	0.641000   
534.000000	0.397000   
534.500000	0.324000   
535.000000	0.325000   
535.500000	0.390000   
536.000000	0.402000   
536.500000	0.418000   
537.000000	0.321000   
537.500000	0.327000   
538.000000	0.394000   
538.500000	0.350000   
539.000000	0.460000   
539.500000	0.472000   
540.000000	0.300000   
540.500000	0.403000   
541.000000	0.287000   
541.500000	0.377000   
542.000000	0.309000   
542.500000	0.345000   
543.000000	0.350000   
543.500000	0.334000   
544.000000	0.336000   
544.500000	0.356000   
545.000000	0.358000   
545.500000	0.356000   
546.000000	0.355000   
546.500000	0.275000   
547.000000	0.343000   
547.500000	0.395000   
548.000000	0.325000   
548.500000	0.254000   

