PE FL                   SPECTRUM    ASCII       PEDS        1.60        
  -1
0124DI~2.SP
19/01/24
10:58:48.00
19/01/24
10:58:48.00


548.500000
1









LS45
540.00
10.00
10.00
SCAN
1
16
100
100
0
600
0
1
0
1
7
ON
435 365 
0 0 0
#HDR
-1
-1
#GR
NM
INT 
0.00002384185791015625
0.0
230.000000
0.500000
638
8
75.372000
0.000000
#DATA
230.000000	0.000000  
230.500000	0.000000  
231.000000	0.000000  
231.500000	0.003000  
232.000000	0.012000  
232.500000	0.002000  
233.000000	0.000000  
233.500000	0.005000  
234.000000	0.022000  
234.500000	0.019000  
235.000000	0.003000  
235.500000	0.012000  
236.000000	0.000000  
236.500000	0.004000  
237.000000	0.014000  
237.500000	0.000000  
238.000000	0.005000  
238.500000	0.023000  
239.000000	0.029000  
239.500000	0.029000  
240.000000	0.031000  
240.500000	0.005000  
241.000000	0.023000  
241.500000	0.024000  
242.000000	0.000000  
242.500000	0.000000  
243.000000	0.000000  
243.500000	0.001000  
244.000000	0.004000  
244.500000	0.019000  
245.000000	0.024000  
245.500000	0.005000  
246.000000	0.029000  
246.500000	0.036000  
247.000000	0.001000  
247.500000	0.001000  
248.000000	0.000000  
248.500000	0.003000  
249.000000	0.012000  
249.500000	0.003000  
250.000000	0.016000  
250.500000	0.025000  
251.000000	0.043000  
251.500000	0.016000  
252.000000	0.024000  
252.500000	0.050000  
253.000000	0.063000  
253.500000	0.073000  
254.000000	0.114000  
254.500000	0.156000  
255.000000	0.221000  
255.500000	0.302000  
256.000000	0.338000  
256.500000	0.319000  
257.000000	0.479000  
257.500000	0.493000  
258.000000	0.726000  
258.500000	0.744000  
259.000000	0.994000  
259.500000	0.921000  
260.000000	1.126000  
260.500000	1.280000  
261.000000	1.378000  
261.500000	1.602000  
262.000000	1.716000  
262.500000	1.942000  
263.000000	2.054000  
263.500000	2.218000  
264.000000	2.348000  
264.500000	2.411000  
265.000000	2.711000  
265.500000	2.314000  
266.000000	2.666000  
266.500000	2.554000  
267.000000	2.753000  
267.500000	2.676000  
268.000000	2.859000  
268.500000	2.537000  
269.000000	2.596000  
269.500000	2.479000  
270.000000	2.410000  
270.500000	2.345000  
271.000000	2.103000  
271.500000	1.905000  
272.000000	1.940000  
272.500000	1.797000  
273.000000	1.641000  
273.500000	1.475000  
274.000000	1.156000  
274.500000	1.197000  
275.000000	1.037000  
275.500000	1.008000  
276.000000	0.751000  
276.500000	0.622000  
277.000000	0.481000  
277.500000	0.399000  
278.000000	0.356000  
278.500000	0.239000  
279.000000	0.228000  
279.500000	0.228000  
280.000000	0.201000  
280.500000	0.174000  
281.000000	0.187000  
281.500000	0.109000  
282.000000	0.125000  
282.500000	0.170000  
283.000000	0.209000  
283.500000	0.182000  
284.000000	0.292000  
284.500000	0.390000  
285.000000	0.456000  
285.500000	0.438000  
286.000000	0.397000  
286.500000	0.480000  
287.000000	0.490000  
287.500000	0.590000  
288.000000	0.559000  
288.500000	0.590000  
289.000000	0.713000  
289.500000	0.763000  
290.000000	0.756000  
290.500000	0.847000  
291.000000	0.856000  
291.500000	0.803000  
292.000000	0.931000  
292.500000	0.921000  
293.000000	1.094000  
293.500000	0.876000  
294.000000	1.137000  
294.500000	1.003000  
295.000000	1.081000  
295.500000	1.144000  
296.000000	1.026000  
296.500000	1.040000  
297.000000	1.144000  
297.500000	0.994000  
298.000000	0.870000  
298.500000	0.971000  
299.000000	0.794000  
299.500000	0.748000  
300.000000	0.747000  
300.500000	0.703000  
301.000000	0.697000  
301.500000	0.472000  
302.000000	0.497000  
302.500000	0.474000  
303.000000	0.388000  
303.500000	0.404000  
304.000000	0.395000  
304.500000	0.333000  
305.000000	0.262000  
305.500000	0.234000  
306.000000	0.235000  
306.500000	0.204000  
307.000000	0.135000  
307.500000	0.114000  
308.000000	0.116000  
308.500000	0.095000  
309.000000	0.098000  
309.500000	0.086999  
310.000000	0.113000  
310.500000	0.074000  
311.000000	0.054000  
311.500000	0.062000  
312.000000	0.089000  
312.500000	0.069000  
313.000000	0.023000  
313.500000	0.066000  
314.000000	0.085000  
314.500000	0.082000  
315.000000	0.074000  
315.500000	0.084000  
316.000000	0.067000  
316.500000	0.061000  
317.000000	0.076000  
317.500000	0.091000  
318.000000	0.064000  
318.500000	0.089000  
319.000000	0.080000  
319.500000	0.074000  
320.000000	0.068000  
320.500000	0.071999  
321.000000	0.084000  
321.500000	0.080000  
322.000000	0.084000  
322.500000	0.059000  
323.000000	0.078000  
323.500000	0.035000  
324.000000	0.062000  
324.500000	0.084000  
325.000000	0.062000  
325.500000	0.031000  
326.000000	0.044000  
326.500000	0.083000  
327.000000	0.070000  
327.500000	0.027000  
328.000000	0.025000  
328.500000	0.064000  
329.000000	0.069000  
329.500000	0.063000  
330.000000	0.052000  
330.500000	0.074000  
331.000000	0.056000  
331.500000	0.096000  
332.000000	0.090000  
332.500000	0.079000  
333.000000	0.085999  
333.500000	0.045000  
334.000000	0.056000  
334.500000	0.073000  
335.000000	0.108000  
335.500000	0.112000  
336.000000	0.086999  
336.500000	0.063000  
337.000000	0.070000  
337.500000	0.062000  
338.000000	0.062000  
338.500000	0.063000  
339.000000	0.068000  
339.500000	0.071999  
340.000000	0.063000  
340.500000	0.042000  
341.000000	0.084000  
341.500000	0.079000  
342.000000	0.070999  
342.500000	0.057000  
343.000000	0.061000  
343.500000	0.065000  
344.000000	0.080000  
344.500000	0.070999  
345.000000	0.102000  
345.500000	0.068000  
346.000000	0.070000  
346.500000	0.036000  
347.000000	0.019000  
347.500000	0.089000  
348.000000	0.073000  
348.500000	0.074000  
349.000000	0.067000  
349.500000	0.060000  
350.000000	0.078000  
350.500000	0.107000  
351.000000	0.154000  
351.500000	0.100000  
352.000000	0.061000  
352.500000	0.066000  
353.000000	0.075000  
353.500000	0.093000  
354.000000	0.097000  
354.500000	0.097000  
355.000000	0.093000  
355.500000	0.039000  
356.000000	0.099000  
356.500000	0.085000  
357.000000	0.042000  
357.500000	0.076000  
358.000000	0.080000  
358.500000	0.090000  
359.000000	0.065000  
359.500000	0.008000  
360.000000	0.044000  
360.500000	0.058000  
361.000000	0.052000  
361.500000	0.051000  
362.000000	0.057000  
362.500000	0.045000  
363.000000	0.053000  
363.500000	0.067000  
364.000000	0.029000  
364.500000	0.073000  
365.000000	0.043000  
365.500000	0.051000  
366.000000	0.078000  
366.500000	0.022000  
367.000000	0.029000  
367.500000	0.066000  
368.000000	0.054000  
368.500000	0.074000  
369.000000	0.035000  
369.500000	0.062000  
370.000000	0.080000  
370.500000	0.049000  
371.000000	0.034000  
371.500000	0.067000  
372.000000	0.058000  
372.500000	0.065000  
373.000000	0.065000  
373.500000	0.076000  
374.000000	0.057000  
374.500000	0.043000  
375.000000	0.056000  
375.500000	0.069000  
376.000000	0.085000  
376.500000	0.054000  
377.000000	0.054000  
377.500000	0.070999  
378.000000	0.060000  
378.500000	0.085000  
379.000000	0.077000  
379.500000	0.044000  
380.000000	0.038000  
380.500000	0.024000  
381.000000	0.054000  
381.500000	0.040000  
382.000000	0.071999  
382.500000	0.062000  
383.000000	0.082000  
383.500000	0.054000  
384.000000	0.070000  
384.500000	0.127000  
385.000000	0.070000  
385.500000	0.063000  
386.000000	0.044000  
386.500000	0.060000  
387.000000	0.004000  
387.500000	0.028000  
388.000000	0.070000  
388.500000	0.079000  
389.000000	0.043000  
389.500000	0.097000  
390.000000	0.081000  
390.500000	0.103000  
391.000000	0.028000  
391.500000	0.070999  
392.000000	0.042000  
392.500000	0.025000  
393.000000	0.089000  
393.500000	0.058000  
394.000000	0.062000  
394.500000	0.056000  
395.000000	0.063000  
395.500000	0.082000  
396.000000	0.047000  
396.500000	0.056000  
397.000000	0.068000  
397.500000	0.066000  
398.000000	0.061000  
398.500000	0.055000  
399.000000	0.042000  
399.500000	0.081000  
400.000000	0.098000  
400.500000	0.078000  
401.000000	0.049000  
401.500000	0.089000  
402.000000	0.090000  
402.500000	0.050000  
403.000000	0.061000  
403.500000	0.058000  
404.000000	0.059000  
404.500000	0.078000  
405.000000	0.027000  
405.500000	0.070999  
406.000000	0.094000  
406.500000	0.065000  
407.000000	0.115000  
407.500000	0.081000  
408.000000	0.064000  
408.500000	0.076000  
409.000000	0.060000  
409.500000	0.053000  
410.000000	0.045000  
410.500000	0.058000  
411.000000	0.098000  
411.500000	0.070000  
412.000000	0.084000  
412.500000	0.086999  
413.000000	0.085999  
413.500000	0.083000  
414.000000	0.122000  
414.500000	0.066000  
415.000000	0.082000  
415.500000	0.090000  
416.000000	0.073000  
416.500000	0.063000  
417.000000	0.068000  
417.500000	0.064000  
418.000000	0.073000  
418.500000	0.090000  
419.000000	0.082000  
419.500000	0.075000  
420.000000	0.075000  
420.500000	0.102000  
421.000000	0.057000  
421.500000	0.081000  
422.000000	0.056000  
422.500000	0.097000  
423.000000	0.085999  
423.500000	0.085000  
424.000000	0.075000  
424.500000	0.071999  
425.000000	0.103000  
425.500000	0.084000  
426.000000	0.069000  
426.500000	0.108000  
427.000000	0.078000  
427.500000	0.074000  
428.000000	0.046000  
428.500000	0.097000  
429.000000	0.056000  
429.500000	0.044000  
430.000000	0.052000  
430.500000	0.035000  
431.000000	0.085000  
431.500000	0.125000  
432.000000	0.125000  
432.500000	0.081000  
433.000000	0.073000  
433.500000	0.093000  
434.000000	0.085000  
434.500000	0.101000  
435.000000	0.068000  
435.500000	0.052000  
436.000000	0.073000  
436.500000	0.049000  
437.000000	0.066000  
437.500000	0.070999  
438.000000	0.063000  
438.500000	0.084000  
439.000000	0.054000  
439.500000	0.038000  
440.000000	0.061000  
440.500000	0.071999  
441.000000	0.098000  
441.500000	0.037000  
442.000000	0.059000  
442.500000	0.053000  
443.000000	0.056000  
443.500000	0.098000  
444.000000	0.097000  
444.500000	0.086999  
445.000000	0.090000  
445.500000	0.085999  
446.000000	0.090000  
446.500000	0.100000  
447.000000	0.082000  
447.500000	0.097000  
448.000000	0.073000  
448.500000	0.116000  
449.000000	0.128000  
449.500000	0.086999  
450.000000	0.091000  
450.500000	0.111000  
451.000000	0.124000  
451.500000	0.105000  
452.000000	0.082000  
452.500000	0.077000  
453.000000	0.099000  
453.500000	0.118000  
454.000000	0.094000  
454.500000	0.109000  
455.000000	0.108000  
455.500000	0.110000  
456.000000	0.128000  
456.500000	0.134000  
457.000000	0.116000  
457.500000	0.124000  
458.000000	0.137000  
458.500000	0.124000  
459.000000	0.133000  
459.500000	0.169000  
460.000000	0.149000  
460.500000	0.127000  
461.000000	0.149000  
461.500000	0.083000  
462.000000	0.092000  
462.500000	0.095000  
463.000000	0.108000  
463.500000	0.115000  
464.000000	0.117000  
464.500000	0.089000  
465.000000	0.112000  
465.500000	0.144000  
466.000000	0.108000  
466.500000	0.144000  
467.000000	0.144000  
467.500000	0.085999  
468.000000	0.094000  
468.500000	0.120000  
469.000000	0.101000  
469.500000	0.094000  
470.000000	0.099000  
470.500000	0.090000  
471.000000	0.055000  
471.500000	0.102000  
472.000000	0.098000  
472.500000	0.117000  
473.000000	0.114000  
473.500000	0.126000  
474.000000	0.177000  
474.500000	0.113000  
475.000000	0.081000  
475.500000	0.109000  
476.000000	0.125000  
476.500000	0.110000  
477.000000	0.122000  
477.500000	0.174000  
478.000000	0.228000  
478.500000	0.144000  
479.000000	0.111000  
479.500000	0.177000  
480.000000	0.164000  
480.500000	0.136000  
481.000000	0.207000  
481.500000	0.140000  
482.000000	0.124000  
482.500000	0.163000  
483.000000	0.218000  
483.500000	0.203000  
484.000000	0.190000  
484.500000	0.177000  
485.000000	0.144000  
485.500000	0.203000  
486.000000	0.211000  
486.500000	0.175000  
487.000000	0.186000  
487.500000	0.218000  
488.000000	0.203000  
488.500000	0.209000  
489.000000	0.217000  
489.500000	0.218000  
490.000000	0.197000  
490.500000	0.184000  
491.000000	0.155000  
491.500000	0.153000  
492.000000	0.193000  
492.500000	0.187000  
493.000000	0.225000  
493.500000	0.177000  
494.000000	0.186000  
494.500000	0.171000  
495.000000	0.207000  
495.500000	0.245000  
496.000000	0.157000  
496.500000	0.209000  
497.000000	0.186000  
497.500000	0.180000  
498.000000	0.200000  
498.500000	0.218000  
499.000000	0.253000  
499.500000	0.244000  
500.000000	0.249000  
500.500000	0.211000  
501.000000	0.175000  
501.500000	0.181000  
502.000000	0.162000  
502.500000	0.207000  
503.000000	0.244000  
503.500000	0.207000  
504.000000	0.204000  
504.500000	0.177000  
505.000000	0.146000  
505.500000	0.233000  
506.000000	0.246000  
506.500000	0.215000  
507.000000	0.206000  
507.500000	0.267000  
508.000000	0.267000  
508.500000	0.235000  
509.000000	0.177000  
509.500000	0.192000  
510.000000	0.192000  
510.500000	0.200000  
511.000000	0.290000  
511.500000	0.306000  
512.000000	0.249000  
512.500000	0.245000  
513.000000	0.291000  
513.500000	0.251000  
514.000000	0.239000  
514.500000	0.370000  
515.000000	0.317000  
515.500000	0.352000  
516.000000	0.358000  
516.500000	0.333000  
517.000000	0.515000  
517.500000	0.617000  
518.000000	0.751000  
518.500000	0.817999  
519.000000	1.238000  
519.500000	1.654000  
520.000000	2.309000  
520.500000	2.748000  
521.000000	3.340000  
521.500000	4.160000  
522.000000	5.420000  
522.500000	6.841000  
523.000000	8.526000  
523.500000	10.135000 
524.000000	12.347000 
524.500000	14.525000 
525.000000	16.920000 
525.500000	18.853000 
526.000000	22.155000 
526.500000	25.373000 
527.000000	28.584000 
527.500000	31.482000 
528.000000	35.598000 
528.500000	39.312000 
529.000000	42.796000 
529.500000	46.289000 
530.000000	50.348000 
530.500000	54.687000 
531.000000	56.713000 
531.500000	60.992000 
532.000000	63.305000 
532.500000	67.308000 
533.000000	69.753000 
533.500000	71.465000 
534.000000	73.075000 
534.500000	74.042000 
535.000000	74.571000 
535.500000	75.372000 
536.000000	75.268000 
536.500000	74.854000 
537.000000	74.170000 
537.500000	71.306000 
538.000000	68.950999 
538.500000	66.116000 
539.000000	64.751000 
539.500000	61.702000 
540.000000	59.302000 
540.500000	55.591000 
541.000000	52.250000 
541.500000	48.389000 
542.000000	46.198000 
542.500000	40.265000 
543.000000	37.925000 
543.500000	34.125000 
544.000000	31.200000 
544.500000	26.537000 
545.000000	24.738000 
545.500000	21.299000 
546.000000	19.113000 
546.500000	16.612000 
547.000000	14.575000 
547.500000	12.094000 
548.000000	10.578000 
548.500000	8.882000  

