PE FL                   SPECTRUM    ASCII       PEDS        1.60        
  -1
018002~1.SP
19/01/24
10:48:14.00
19/01/24
10:48:14.00


548.500000
1









LS45
470.00
10.00
10.00
SCAN
1
16
100
100
0
600
0
1
0
1
7
ON
435 365 
0 0 0
#HDR
-1
-1
#GR
NM
INT 
0.00002384185791015625
0.0
230.000000
0.500000
638
8
195.555000
0.017000
#DATA
230.000000	0.912000   
230.500000	0.939999   
231.000000	0.872000   
231.500000	0.841000   
232.000000	1.021000   
232.500000	0.941999   
233.000000	0.859000   
233.500000	0.870000   
234.000000	0.862000   
234.500000	0.838000   
235.000000	0.846000   
235.500000	0.824000   
236.000000	0.879000   
236.500000	0.827000   
237.000000	0.745000   
237.500000	0.736000   
238.000000	0.631000   
238.500000	0.599000   
239.000000	0.508000   
239.500000	0.361000   
240.000000	0.475000   
240.500000	0.478000   
241.000000	0.458000   
241.500000	0.353000   
242.000000	0.394000   
242.500000	0.336000   
243.000000	0.392000   
243.500000	0.391000   
244.000000	0.469000   
244.500000	0.588000   
245.000000	0.489000   
245.500000	0.580000   
246.000000	0.514000   
246.500000	0.513000   
247.000000	0.552000   
247.500000	0.670000   
248.000000	0.735000   
248.500000	0.671000   
249.000000	0.802000   
249.500000	0.755000   
250.000000	0.823000   
250.500000	0.717000   
251.000000	0.847000   
251.500000	0.916000   
252.000000	0.843000   
252.500000	0.802000   
253.000000	0.825000   
253.500000	0.988000   
254.000000	0.821000   
254.500000	0.757000   
255.000000	0.785000   
255.500000	0.737000   
256.000000	0.752000   
256.500000	0.595000   
257.000000	0.667000   
257.500000	0.616000   
258.000000	0.591000   
258.500000	0.537000   
259.000000	0.435000   
259.500000	0.358000   
260.000000	0.485000   
260.500000	0.361000   
261.000000	0.311000   
261.500000	0.243000   
262.000000	0.302000   
262.500000	0.228000   
263.000000	0.210000   
263.500000	0.217000   
264.000000	0.144000   
264.500000	0.145000   
265.000000	0.142000   
265.500000	0.102000   
266.000000	0.049000   
266.500000	0.090000   
267.000000	0.083000   
267.500000	0.095000   
268.000000	0.095000   
268.500000	0.043000   
269.000000	0.079000   
269.500000	0.061000   
270.000000	0.049000   
270.500000	0.041000   
271.000000	0.035000   
271.500000	0.030000   
272.000000	0.070999   
272.500000	0.053000   
273.000000	0.025000   
273.500000	0.048000   
274.000000	0.076000   
274.500000	0.079000   
275.000000	0.068000   
275.500000	0.069000   
276.000000	0.063000   
276.500000	0.065000   
277.000000	0.017000   
277.500000	0.086999   
278.000000	0.108000   
278.500000	0.068000   
279.000000	0.075000   
279.500000	0.058000   
280.000000	0.079000   
280.500000	0.081000   
281.000000	0.081000   
281.500000	0.080000   
282.000000	0.118000   
282.500000	0.144000   
283.000000	0.117000   
283.500000	0.070000   
284.000000	0.084000   
284.500000	0.080000   
285.000000	0.056000   
285.500000	0.035000   
286.000000	0.100000   
286.500000	0.063000   
287.000000	0.057000   
287.500000	0.086999   
288.000000	0.105000   
288.500000	0.065000   
289.000000	0.063000   
289.500000	0.077000   
290.000000	0.085999   
290.500000	0.114000   
291.000000	0.105000   
291.500000	0.120000   
292.000000	0.076000   
292.500000	0.080000   
293.000000	0.141000   
293.500000	0.067000   
294.000000	0.089000   
294.500000	0.064000   
295.000000	0.082000   
295.500000	0.085999   
296.000000	0.098000   
296.500000	0.055000   
297.000000	0.085000   
297.500000	0.104000   
298.000000	0.148000   
298.500000	0.137000   
299.000000	0.128000   
299.500000	0.238000   
300.000000	0.112000   
300.500000	0.120000   
301.000000	0.152000   
301.500000	0.156000   
302.000000	0.121000   
302.500000	0.111000   
303.000000	0.179000   
303.500000	0.160000   
304.000000	0.118000   
304.500000	0.089000   
305.000000	0.075000   
305.500000	0.148000   
306.000000	0.135000   
306.500000	0.160000   
307.000000	0.091000   
307.500000	0.131000   
308.000000	0.121000   
308.500000	0.104000   
309.000000	0.175000   
309.500000	0.143000   
310.000000	0.118000   
310.500000	0.135000   
311.000000	0.125000   
311.500000	0.137000   
312.000000	0.123000   
312.500000	0.169000   
313.000000	0.109000   
313.500000	0.168000   
314.000000	0.152000   
314.500000	0.100000   
315.000000	0.147000   
315.500000	0.187000   
316.000000	0.198000   
316.500000	0.195000   
317.000000	0.150000   
317.500000	0.142000   
318.000000	0.193000   
318.500000	0.220000   
319.000000	0.232000   
319.500000	0.194000   
320.000000	0.120000   
320.500000	0.161000   
321.000000	0.125000   
321.500000	0.174000   
322.000000	0.207000   
322.500000	0.188000   
323.000000	0.238000   
323.500000	0.208000   
324.000000	0.221000   
324.500000	0.208000   
325.000000	0.147000   
325.500000	0.139000   
326.000000	0.179000   
326.500000	0.229000   
327.000000	0.243000   
327.500000	0.195000   
328.000000	0.161000   
328.500000	0.162000   
329.000000	0.219000   
329.500000	0.236000   
330.000000	0.231000   
330.500000	0.219000   
331.000000	0.234000   
331.500000	0.242000   
332.000000	0.254000   
332.500000	0.174000   
333.000000	0.192000   
333.500000	0.293000   
334.000000	0.232000   
334.500000	0.220000   
335.000000	0.197000   
335.500000	0.225000   
336.000000	0.249000   
336.500000	0.315000   
337.000000	0.255000   
337.500000	0.216000   
338.000000	0.281000   
338.500000	0.193000   
339.000000	0.242000   
339.500000	0.278000   
340.000000	0.154000   
340.500000	0.254000   
341.000000	0.254000   
341.500000	0.227000   
342.000000	0.226000   
342.500000	0.225000   
343.000000	0.228000   
343.500000	0.264000   
344.000000	0.244000   
344.500000	0.198000   
345.000000	0.142000   
345.500000	0.227000   
346.000000	0.193000   
346.500000	0.211000   
347.000000	0.219000   
347.500000	0.213000   
348.000000	0.196000   
348.500000	0.228000   
349.000000	0.209000   
349.500000	0.214000   
350.000000	0.155000   
350.500000	0.248000   
351.000000	0.237000   
351.500000	0.219000   
352.000000	0.268000   
352.500000	0.228000   
353.000000	0.192000   
353.500000	0.259000   
354.000000	0.175000   
354.500000	0.214000   
355.000000	0.223000   
355.500000	0.200000   
356.000000	0.150000   
356.500000	0.190000   
357.000000	0.150000   
357.500000	0.194000   
358.000000	0.171000   
358.500000	0.186000   
359.000000	0.217000   
359.500000	0.209000   
360.000000	0.169000   
360.500000	0.262000   
361.000000	0.166000   
361.500000	0.163000   
362.000000	0.191000   
362.500000	0.223000   
363.000000	0.213000   
363.500000	0.132000   
364.000000	0.155000   
364.500000	0.149000   
365.000000	0.161000   
365.500000	0.145000   
366.000000	0.196000   
366.500000	0.213000   
367.000000	0.203000   
367.500000	0.140000   
368.000000	0.166000   
368.500000	0.176000   
369.000000	0.190000   
369.500000	0.177000   
370.000000	0.202000   
370.500000	0.146000   
371.000000	0.224000   
371.500000	0.169000   
372.000000	0.150000   
372.500000	0.199000   
373.000000	0.199000   
373.500000	0.220000   
374.000000	0.249000   
374.500000	0.203000   
375.000000	0.225000   
375.500000	0.225000   
376.000000	0.162000   
376.500000	0.167000   
377.000000	0.227000   
377.500000	0.192000   
378.000000	0.151000   
378.500000	0.170000   
379.000000	0.223000   
379.500000	0.120000   
380.000000	0.171000   
380.500000	0.175000   
381.000000	0.204000   
381.500000	0.247000   
382.000000	0.176000   
382.500000	0.211000   
383.000000	0.187000   
383.500000	0.210000   
384.000000	0.260000   
384.500000	0.243000   
385.000000	0.215000   
385.500000	0.250000   
386.000000	0.175000   
386.500000	0.207000   
387.000000	0.217000   
387.500000	0.170000   
388.000000	0.191000   
388.500000	0.179000   
389.000000	0.141000   
389.500000	0.221000   
390.000000	0.187000   
390.500000	0.135000   
391.000000	0.212000   
391.500000	0.244000   
392.000000	0.196000   
392.500000	0.178000   
393.000000	0.264000   
393.500000	0.179000   
394.000000	0.213000   
394.500000	0.283000   
395.000000	0.218000   
395.500000	0.178000   
396.000000	0.220000   
396.500000	0.179000   
397.000000	0.250000   
397.500000	0.278000   
398.000000	0.161000   
398.500000	0.195000   
399.000000	0.267000   
399.500000	0.195000   
400.000000	0.221000   
400.500000	0.227000   
401.000000	0.227000   
401.500000	0.262000   
402.000000	0.262000   
402.500000	0.174000   
403.000000	0.222000   
403.500000	0.243000   
404.000000	0.249000   
404.500000	0.249000   
405.000000	0.234000   
405.500000	0.259000   
406.000000	0.290000   
406.500000	0.295000   
407.000000	0.204000   
407.500000	0.231000   
408.000000	0.296000   
408.500000	0.226000   
409.000000	0.243000   
409.500000	0.242000   
410.000000	0.279000   
410.500000	0.225000   
411.000000	0.251000   
411.500000	0.302000   
412.000000	0.309000   
412.500000	0.390000   
413.000000	0.311000   
413.500000	0.234000   
414.000000	0.306000   
414.500000	0.374000   
415.000000	0.387000   
415.500000	0.377000   
416.000000	0.386000   
416.500000	0.362000   
417.000000	0.412000   
417.500000	0.345000   
418.000000	0.342000   
418.500000	0.309000   
419.000000	0.397000   
419.500000	0.396000   
420.000000	0.408000   
420.500000	0.366000   
421.000000	0.407000   
421.500000	0.342000   
422.000000	0.376000   
422.500000	0.383000   
423.000000	0.394000   
423.500000	0.366000   
424.000000	0.460000   
424.500000	0.442000   
425.000000	0.351000   
425.500000	0.314000   
426.000000	0.274000   
426.500000	0.332000   
427.000000	0.373000   
427.500000	0.377000   
428.000000	0.376000   
428.500000	0.389000   
429.000000	0.433000   
429.500000	0.389000   
430.000000	0.416000   
430.500000	0.385000   
431.000000	0.462000   
431.500000	0.508000   
432.000000	0.474000   
432.500000	0.435000   
433.000000	0.492000   
433.500000	0.465000   
434.000000	0.449000   
434.500000	0.405000   
435.000000	0.500000   
435.500000	0.533000   
436.000000	0.588000   
436.500000	0.527000   
437.000000	0.638000   
437.500000	0.607000   
438.000000	0.491000   
438.500000	0.530000   
439.000000	0.608000   
439.500000	0.668000   
440.000000	0.617000   
440.500000	0.586000   
441.000000	0.545000   
441.500000	0.665000   
442.000000	0.659000   
442.500000	0.664000   
443.000000	0.591000   
443.500000	0.639000   
444.000000	0.788000   
444.500000	0.799000   
445.000000	0.875000   
445.500000	1.038000   
446.000000	1.041000   
446.500000	1.230000   
447.000000	1.599000   
447.500000	1.845000   
448.000000	2.327000   
448.500000	3.099000   
449.000000	3.900000   
449.500000	5.122000   
450.000000	6.571000   
450.500000	8.156000   
451.000000	9.962999   
451.500000	12.623000  
452.000000	15.169000  
452.500000	18.972000  
453.000000	23.207000  
453.500000	28.223000  
454.000000	33.423000  
454.500000	39.256000  
455.000000	44.778000  
455.500000	51.217000  
456.000000	58.824000  
456.500000	67.789000  
457.000000	74.910000  
457.500000	83.766000  
458.000000	92.299000  
458.500000	99.756000  
459.000000	109.479000 
459.500000	118.556000 
460.000000	127.626000 
460.500000	135.725000 
461.000000	146.550000 
461.500000	153.997000 
462.000000	162.416000 
462.500000	169.224000 
463.000000	178.292000 
463.500000	183.041000 
464.000000	187.970000 
464.500000	191.647000 
465.000000	194.609000 
465.500000	194.161000 
466.000000	195.555000 
466.500000	194.854000 
467.000000	192.684000 
467.500000	189.616000 
468.000000	185.008000 
468.500000	179.246000 
469.000000	173.719000 
469.500000	165.842000 
470.000000	158.192000 
470.500000	148.912000 
471.000000	140.139000 
471.500000	130.078000 
472.000000	119.854000 
472.500000	112.725000 
473.000000	102.604000 
473.500000	95.712999  
474.000000	86.267000  
474.500000	77.563999  
475.000000	69.196000  
475.500000	62.144000  
476.000000	53.794000  
476.500000	48.573000  
477.000000	41.519000  
477.500000	36.290000  
478.000000	30.529000  
478.500000	25.184000  
479.000000	21.092000  
479.500000	17.635000  
480.000000	14.907000  
480.500000	11.933000  
481.000000	9.516000   
481.500000	7.957000   
482.000000	6.700000   
482.500000	5.331000   
483.000000	4.282000   
483.500000	3.445000   
484.000000	3.072000   
484.500000	2.445000   
485.000000	2.212000   
485.500000	1.953000   
486.000000	1.642000   
486.500000	1.738000   
487.000000	1.650000   
487.500000	1.416000   
488.000000	1.279000   
488.500000	1.469000   
489.000000	1.378000   
489.500000	1.738000   
490.000000	1.710000   
490.500000	1.599000   
491.000000	1.684000   
491.500000	1.926000   
492.000000	1.865000   
492.500000	1.913000   
493.000000	2.060000   
493.500000	2.165000   
494.000000	2.432000   
494.500000	2.296000   
495.000000	2.579000   
495.500000	2.641000   
496.000000	2.892000   
496.500000	2.867000   
497.000000	3.125000   
497.500000	3.403000   
498.000000	3.248000   
498.500000	3.526000   
499.000000	4.027000   
499.500000	4.165000   
500.000000	4.055000   
500.500000	4.720000   
501.000000	4.730000   
501.500000	4.787000   
502.000000	4.956000   
502.500000	5.333000   
503.000000	5.628000   
503.500000	5.497000   
504.000000	5.604000   
504.500000	5.304000   
505.000000	5.503000   
505.500000	5.637000   
506.000000	5.487000   
506.500000	5.489000   
507.000000	5.817000   
507.500000	5.856000   
508.000000	5.607000   
508.500000	5.978000   
509.000000	5.318000   
509.500000	5.464000   
510.000000	5.050000   
510.500000	5.142000   
511.000000	5.029000   
511.500000	4.795000   
512.000000	4.645000   
512.500000	4.300000   
513.000000	4.341000   
513.500000	3.926000   
514.000000	3.373000   
514.500000	3.507000   
515.000000	2.805000   
515.500000	2.987000   
516.000000	2.475000   
516.500000	2.433000   
517.000000	2.113000   
517.500000	2.242000   
518.000000	1.909000   
518.500000	1.666000   
519.000000	1.602000   
519.500000	1.288000   
520.000000	1.286000   
520.500000	1.198000   
521.000000	0.980000   
521.500000	0.876000   
522.000000	0.788000   
522.500000	0.704000   
523.000000	0.808000   
523.500000	0.802000   
524.000000	0.554000   
524.500000	0.452000   
525.000000	0.525000   
525.500000	0.484000   
526.000000	0.473000   
526.500000	0.382000   
527.000000	0.374000   
527.500000	0.351000   
528.000000	0.321000   
528.500000	0.349000   
529.000000	0.311000   
529.500000	0.306000   
530.000000	0.379000   
530.500000	0.359000   
531.000000	0.272000   
531.500000	0.280000   
532.000000	0.327000   
532.500000	0.281000   
533.000000	0.268000   
533.500000	0.406000   
534.000000	0.454000   
534.500000	0.406000   
535.000000	0.446000   
535.500000	0.611000   
536.000000	0.495000   
536.500000	0.527000   
537.000000	0.611000   
537.500000	0.678000   
538.000000	0.676000   
538.500000	0.687999   
539.000000	0.666000   
539.500000	0.963000   
540.000000	0.939999   
540.500000	0.923000   
541.000000	0.992000   
541.500000	1.234000   
542.000000	1.246000   
542.500000	1.183000   
543.000000	1.088000   
543.500000	1.277000   
544.000000	1.466000   
544.500000	1.654000   
545.000000	1.710000   
545.500000	1.697000   
546.000000	1.885000   
546.500000	1.960000   
547.000000	2.272000   
547.500000	2.053000   
548.000000	1.921000   
548.500000	2.079000   

