PE FL                   SPECTRUM    ASCII       PEDS        1.60        
  -1
016CFD~1.SP
19/01/24
10:33:54.00
19/01/24
10:33:54.00


548.500000
1









LS45
375.00
10.00
10.00
SCAN
1
16
100
100
0
600
0
1
0
1
7
ON
435 365 
0 0 0
#HDR
-1
-1
#GR
NM
INT 
0.00002384185791015625
0.0
230.000000
0.500000
638
8
442.604000
0.004000
#DATA
230.000000	0.004000   
230.500000	0.054000   
231.000000	0.146000   
231.500000	0.074000   
232.000000	0.080000   
232.500000	0.098000   
233.000000	0.126000   
233.500000	0.112000   
234.000000	0.079000   
234.500000	0.124000   
235.000000	0.110000   
235.500000	0.055000   
236.000000	0.055000   
236.500000	0.076000   
237.000000	0.108000   
237.500000	0.130000   
238.000000	0.097000   
238.500000	0.113000   
239.000000	0.109000   
239.500000	0.109000   
240.000000	0.085999   
240.500000	0.125000   
241.000000	0.135000   
241.500000	0.086999   
242.000000	0.113000   
242.500000	0.136000   
243.000000	0.126000   
243.500000	0.071999   
244.000000	0.165000   
244.500000	0.171000   
245.000000	0.136000   
245.500000	0.141000   
246.000000	0.141000   
246.500000	0.103000   
247.000000	0.093000   
247.500000	0.121000   
248.000000	0.114000   
248.500000	0.073000   
249.000000	0.100000   
249.500000	0.112000   
250.000000	0.126000   
250.500000	0.137000   
251.000000	0.142000   
251.500000	0.076000   
252.000000	0.097000   
252.500000	0.070999   
253.000000	0.144000   
253.500000	0.142000   
254.000000	0.119000   
254.500000	0.163000   
255.000000	0.139000   
255.500000	0.111000   
256.000000	0.076000   
256.500000	0.118000   
257.000000	0.137000   
257.500000	0.195000   
258.000000	0.107000   
258.500000	0.113000   
259.000000	0.113000   
259.500000	0.066000   
260.000000	0.157000   
260.500000	0.053000   
261.000000	0.080000   
261.500000	0.139000   
262.000000	0.159000   
262.500000	0.128000   
263.000000	0.147000   
263.500000	0.155000   
264.000000	0.093000   
264.500000	0.130000   
265.000000	0.189000   
265.500000	0.251000   
266.000000	0.176000   
266.500000	0.203000   
267.000000	0.118000   
267.500000	0.098000   
268.000000	0.103000   
268.500000	0.169000   
269.000000	0.174000   
269.500000	0.182000   
270.000000	0.190000   
270.500000	0.194000   
271.000000	0.174000   
271.500000	0.074000   
272.000000	0.191000   
272.500000	0.174000   
273.000000	0.100000   
273.500000	0.182000   
274.000000	0.144000   
274.500000	0.139000   
275.000000	0.159000   
275.500000	0.130000   
276.000000	0.141000   
276.500000	0.101000   
277.000000	0.158000   
277.500000	0.160000   
278.000000	0.174000   
278.500000	0.100000   
279.000000	0.146000   
279.500000	0.066000   
280.000000	0.173000   
280.500000	0.226000   
281.000000	0.163000   
281.500000	0.140000   
282.000000	0.170000   
282.500000	0.213000   
283.000000	0.193000   
283.500000	0.170000   
284.000000	0.241000   
284.500000	0.182000   
285.000000	0.224000   
285.500000	0.258000   
286.000000	0.221000   
286.500000	0.138000   
287.000000	0.153000   
287.500000	0.215000   
288.000000	0.209000   
288.500000	0.261000   
289.000000	0.186000   
289.500000	0.222000   
290.000000	0.189000   
290.500000	0.197000   
291.000000	0.273000   
291.500000	0.262000   
292.000000	0.314000   
292.500000	0.191000   
293.000000	0.160000   
293.500000	0.225000   
294.000000	0.324000   
294.500000	0.267000   
295.000000	0.284000   
295.500000	0.283000   
296.000000	0.279000   
296.500000	0.213000   
297.000000	0.184000   
297.500000	0.325000   
298.000000	0.223000   
298.500000	0.217000   
299.000000	0.348000   
299.500000	0.343000   
300.000000	0.363000   
300.500000	0.269000   
301.000000	0.295000   
301.500000	0.297000   
302.000000	0.277000   
302.500000	0.330000   
303.000000	0.415000   
303.500000	0.463000   
304.000000	0.291000   
304.500000	0.284000   
305.000000	0.312000   
305.500000	0.403000   
306.000000	0.384000   
306.500000	0.295000   
307.000000	0.266000   
307.500000	0.351000   
308.000000	0.369000   
308.500000	0.391000   
309.000000	0.380000   
309.500000	0.347000   
310.000000	0.328000   
310.500000	0.251000   
311.000000	0.263000   
311.500000	0.398000   
312.000000	0.427000   
312.500000	0.297000   
313.000000	0.280000   
313.500000	0.294000   
314.000000	0.323000   
314.500000	0.254000   
315.000000	0.348000   
315.500000	0.331000   
316.000000	0.313000   
316.500000	0.385000   
317.000000	0.373000   
317.500000	0.429000   
318.000000	0.557000   
318.500000	0.424000   
319.000000	0.418000   
319.500000	0.449000   
320.000000	0.453000   
320.500000	0.381000   
321.000000	0.461000   
321.500000	0.470000   
322.000000	0.441000   
322.500000	0.462000   
323.000000	0.637000   
323.500000	0.708000   
324.000000	0.672000   
324.500000	0.579000   
325.000000	0.552000   
325.500000	0.537000   
326.000000	0.435000   
326.500000	0.582000   
327.000000	0.786000   
327.500000	0.677000   
328.000000	0.625000   
328.500000	0.672000   
329.000000	0.722000   
329.500000	0.725000   
330.000000	0.637000   
330.500000	0.739000   
331.000000	0.836000   
331.500000	0.869000   
332.000000	0.924000   
332.500000	0.839000   
333.000000	0.719000   
333.500000	0.867000   
334.000000	0.837000   
334.500000	0.856000   
335.000000	0.962000   
335.500000	1.026000   
336.000000	1.032000   
336.500000	1.184000   
337.000000	1.103000   
337.500000	0.970000   
338.000000	1.042000   
338.500000	1.240000   
339.000000	1.311000   
339.500000	1.331000   
340.000000	1.171000   
340.500000	1.196000   
341.000000	1.205000   
341.500000	1.444000   
342.000000	1.365000   
342.500000	1.287000   
343.000000	1.402000   
343.500000	1.547000   
344.000000	1.524000   
344.500000	1.356000   
345.000000	1.478000   
345.500000	1.564000   
346.000000	1.701000   
346.500000	1.713000   
347.000000	1.653000   
347.500000	1.800000   
348.000000	1.724000   
348.500000	1.807000   
349.000000	2.022000   
349.500000	1.965000   
350.000000	1.988000   
350.500000	2.461000   
351.000000	2.588000   
351.500000	2.784000   
352.000000	3.627000   
352.500000	4.028000   
353.000000	4.875000   
353.500000	6.248000   
354.000000	8.303000   
354.500000	10.374000  
355.000000	13.085000  
355.500000	17.306000  
356.000000	21.787000  
356.500000	27.550000  
357.000000	33.524000  
357.500000	40.070000  
358.000000	46.746000  
358.500000	56.380000  
359.000000	67.086000  
359.500000	80.733999  
360.000000	89.885000  
360.500000	103.395000 
361.000000	117.072000 
361.500000	136.148000 
362.000000	152.094000 
362.500000	174.877000 
363.000000	190.955000 
363.500000	213.844000 
364.000000	230.935000 
364.500000	255.265000 
365.000000	274.750000 
365.500000	294.554000 
366.000000	315.972000 
366.500000	333.287000 
367.000000	354.287000 
367.500000	371.774000 
368.000000	389.305000 
368.500000	397.184000 
369.000000	413.367000 
369.500000	419.929000 
370.000000	431.074000 
370.500000	440.570000 
371.000000	440.978000 
371.500000	440.390000 
372.000000	442.604000 
372.500000	439.688000 
373.000000	433.772000 
373.500000	424.839000 
374.000000	410.606000 
374.500000	400.177000 
375.000000	386.257000 
375.500000	374.159000 
376.000000	356.894000 
376.500000	335.125000 
377.000000	317.086000 
377.500000	292.992000 
378.000000	274.261000 
378.500000	252.754000 
379.000000	235.508000 
379.500000	210.480000 
380.000000	191.378000 
380.500000	172.498000 
381.000000	156.357000 
381.500000	135.797000 
382.000000	119.891000 
382.500000	105.912000 
383.000000	92.148000  
383.500000	79.653000  
384.000000	66.318000  
384.500000	58.165000  
385.000000	49.349000  
385.500000	39.591000  
386.000000	31.650000  
386.500000	27.433000  
387.000000	23.233000  
387.500000	18.750000  
388.000000	14.931000  
388.500000	12.519000  
389.000000	10.312000  
389.500000	8.888000   
390.000000	7.114000   
390.500000	5.980000   
391.000000	5.750000   
391.500000	5.291000   
392.000000	4.409000   
392.500000	4.312000   
393.000000	4.091000   
393.500000	3.899000   
394.000000	4.025000   
394.500000	3.777000   
395.000000	3.432000   
395.500000	3.456000   
396.000000	3.200000   
396.500000	3.082000   
397.000000	3.230000   
397.500000	3.038000   
398.000000	3.551000   
398.500000	3.299000   
399.000000	3.169000   
399.500000	3.158000   
400.000000	3.095000   
400.500000	2.815000   
401.000000	2.929000   
401.500000	2.962000   
402.000000	3.157000   
402.500000	3.092000   
403.000000	3.313000   
403.500000	3.332000   
404.000000	3.150000   
404.500000	3.032000   
405.000000	3.198000   
405.500000	3.578000   
406.000000	3.642000   
406.500000	3.608000   
407.000000	3.997000   
407.500000	4.394000   
408.000000	4.749000   
408.500000	5.050000   
409.000000	5.704000   
409.500000	5.915000   
410.000000	6.556000   
410.500000	6.949000   
411.000000	7.905000   
411.500000	9.076000   
412.000000	9.292000   
412.500000	10.716000  
413.000000	12.446000  
413.500000	13.096000  
414.000000	14.060000  
414.500000	15.169000  
415.000000	16.590000  
415.500000	18.763000  
416.000000	19.553000  
416.500000	21.439000  
417.000000	23.312000  
417.500000	23.771000  
418.000000	24.910000  
418.500000	28.111000  
419.000000	29.555000  
419.500000	31.011000  
420.000000	31.598000  
420.500000	34.567000  
421.000000	34.417000  
421.500000	36.086000  
422.000000	37.342000  
422.500000	38.214000  
423.000000	38.912000  
423.500000	38.909000  
424.000000	39.071000  
424.500000	40.540000  
425.000000	40.941000  
425.500000	40.975000  
426.000000	39.902000  
426.500000	40.785000  
427.000000	39.991000  
427.500000	39.102000  
428.000000	38.473000  
428.500000	37.698000  
429.000000	36.136000  
429.500000	35.604000  
430.000000	33.985000  
430.500000	33.302000  
431.000000	32.492000  
431.500000	30.394000  
432.000000	28.557000  
432.500000	26.886000  
433.000000	26.073000  
433.500000	24.471000  
434.000000	22.031000  
434.500000	21.133000  
435.000000	18.963000  
435.500000	18.158000  
436.000000	17.508000  
436.500000	16.018000  
437.000000	14.298000  
437.500000	13.182000  
438.000000	11.876000  
438.500000	10.787000  
439.000000	9.175000   
439.500000	7.856000   
440.000000	7.969000   
440.500000	7.111000   
441.000000	6.130000   
441.500000	5.594000   
442.000000	5.040000   
442.500000	4.171000   
443.000000	3.724000   
443.500000	3.378000   
444.000000	3.080000   
444.500000	2.574000   
445.000000	2.152000   
445.500000	2.237000   
446.000000	1.939000   
446.500000	1.814000   
447.000000	1.702000   
447.500000	1.404000   
448.000000	1.536000   
448.500000	1.368000   
449.000000	1.277000   
449.500000	1.056000   
450.000000	1.183000   
450.500000	1.285000   
451.000000	1.368000   
451.500000	1.312000   
452.000000	0.929000   
452.500000	1.004000   
453.000000	1.191000   
453.500000	0.884000   
454.000000	0.761000   
454.500000	0.974000   
455.000000	0.958000   
455.500000	0.840000   
456.000000	0.932000   
456.500000	1.106000   
457.000000	1.013000   
457.500000	0.942999   
458.000000	0.857000   
458.500000	0.849000   
459.000000	0.857000   
459.500000	0.962000   
460.000000	0.959000   
460.500000	0.969000   
461.000000	0.819000   
461.500000	0.924000   
462.000000	0.923000   
462.500000	0.820000   
463.000000	0.700000   
463.500000	0.799000   
464.000000	0.716000   
464.500000	0.760000   
465.000000	0.751000   
465.500000	0.786000   
466.000000	0.755000   
466.500000	0.899000   
467.000000	0.687999   
467.500000	0.584000   
468.000000	0.667000   
468.500000	0.807000   
469.000000	0.772000   
469.500000	0.647000   
470.000000	0.635000   
470.500000	0.738000   
471.000000	0.507000   
471.500000	0.536000   
472.000000	0.753000   
472.500000	0.869000   
473.000000	0.652000   
473.500000	0.597000   
474.000000	0.546000   
474.500000	0.562999   
475.000000	0.585000   
475.500000	0.638000   
476.000000	0.649000   
476.500000	0.633000   
477.000000	0.587000   
477.500000	0.550000   
478.000000	0.669000   
478.500000	0.764000   
479.000000	0.577000   
479.500000	0.548000   
480.000000	0.529000   
480.500000	0.458000   
481.000000	0.611000   
481.500000	0.474000   
482.000000	0.699000   
482.500000	0.588000   
483.000000	0.562000   
483.500000	0.533000   
484.000000	0.520000   
484.500000	0.572000   
485.000000	0.695000   
485.500000	0.620000   
486.000000	0.498000   
486.500000	0.609000   
487.000000	0.582000   
487.500000	0.708000   
488.000000	0.712000   
488.500000	0.657000   
489.000000	0.606000   
489.500000	0.610000   
490.000000	0.757000   
490.500000	0.650000   
491.000000	0.678000   
491.500000	0.725000   
492.000000	0.560000   
492.500000	0.575000   
493.000000	0.722000   
493.500000	0.591000   
494.000000	0.689999   
494.500000	0.495000   
495.000000	0.628000   
495.500000	0.700000   
496.000000	0.616000   
496.500000	0.556000   
497.000000	0.450000   
497.500000	0.630000   
498.000000	0.649000   
498.500000	0.532000   
499.000000	0.580000   
499.500000	0.531000   
500.000000	0.500000   
500.500000	0.533000   
501.000000	0.539000   
501.500000	0.458000   
502.000000	0.517000   
502.500000	0.425000   
503.000000	0.528000   
503.500000	0.483000   
504.000000	0.455000   
504.500000	0.340000   
505.000000	0.503000   
505.500000	0.451000   
506.000000	0.518000   
506.500000	0.525000   
507.000000	0.526000   
507.500000	0.532000   
508.000000	0.478000   
508.500000	0.442000   
509.000000	0.311000   
509.500000	0.389000   
510.000000	0.531000   
510.500000	0.391000   
511.000000	0.391000   
511.500000	0.433000   
512.000000	0.440000   
512.500000	0.497000   
513.000000	0.414000   
513.500000	0.463000   
514.000000	0.406000   
514.500000	0.521000   
515.000000	0.403000   
515.500000	0.281000   
516.000000	0.368000   
516.500000	0.418000   
517.000000	0.377000   
517.500000	0.392000   
518.000000	0.471000   
518.500000	0.486000   
519.000000	0.414000   
519.500000	0.505000   
520.000000	0.480000   
520.500000	0.465000   
521.000000	0.487000   
521.500000	0.533000   
522.000000	0.398000   
522.500000	0.422000   
523.000000	0.413000   
523.500000	0.450000   
524.000000	0.430000   
524.500000	0.394000   
525.000000	0.385000   
525.500000	0.426000   
526.000000	0.393000   
526.500000	0.308000   
527.000000	0.370000   
527.500000	0.435000   
528.000000	0.396000   
528.500000	0.340000   
529.000000	0.333000   
529.500000	0.269000   
530.000000	0.257000   
530.500000	0.355000   
531.000000	0.361000   
531.500000	0.299000   
532.000000	0.332000   
532.500000	0.353000   
533.000000	0.380000   
533.500000	0.302000   
534.000000	0.354000   
534.500000	0.252000   
535.000000	0.373000   
535.500000	0.376000   
536.000000	0.359000   
536.500000	0.346000   
537.000000	0.349000   
537.500000	0.305000   
538.000000	0.369000   
538.500000	0.355000   
539.000000	0.364000   
539.500000	0.402000   
540.000000	0.385000   
540.500000	0.247000   
541.000000	0.334000   
541.500000	0.346000   
542.000000	0.362000   
542.500000	0.358000   
543.000000	0.355000   
543.500000	0.233000   
544.000000	0.296000   
544.500000	0.289000   
545.000000	0.250000   
545.500000	0.262000   
546.000000	0.346000   
546.500000	0.345000   
547.000000	0.252000   
547.500000	0.325000   
548.000000	0.370000   
548.500000	0.261000   

