PE FL                   SPECTRUM    ASCII       PEDS        1.60        
  -1
0124DI~4.SP
19/01/24
10:52:00.00
19/01/24
10:52:00.00


548.500000
1









LS45
495.00
10.00
10.00
SCAN
1
16
100
100
0
600
0
1
0
1
7
ON
435 365 
0 0 0
#HDR
-1
-1
#GR
NM
INT 
0.00002384185791015625
0.0
230.000000
0.500000
638
8
157.989000
0.016000
#DATA
230.000000	0.069000   
230.500000	0.016000   
231.000000	0.081000   
231.500000	0.097000   
232.000000	0.066000   
232.500000	0.129000   
233.000000	0.106000   
233.500000	0.177000   
234.000000	0.237000   
234.500000	0.286000   
235.000000	0.305000   
235.500000	0.358000   
236.000000	0.384000   
236.500000	0.533000   
237.000000	0.625000   
237.500000	0.781000   
238.000000	0.984000   
238.500000	1.040000   
239.000000	1.187000   
239.500000	1.034000   
240.000000	1.145000   
240.500000	1.340000   
241.000000	1.544000   
241.500000	1.616000   
242.000000	1.551000   
242.500000	1.566000   
243.000000	1.964000   
243.500000	2.027000   
244.000000	2.075000   
244.500000	2.112000   
245.000000	1.993000   
245.500000	2.198000   
246.000000	1.938000   
246.500000	1.859000   
247.000000	2.058000   
247.500000	2.127000   
248.000000	2.193000   
248.500000	1.876000   
249.000000	1.790000   
249.500000	1.519000   
250.000000	1.427000   
250.500000	1.201000   
251.000000	1.324000   
251.500000	1.386000   
252.000000	1.123000   
252.500000	1.051000   
253.000000	0.928000   
253.500000	0.925000   
254.000000	0.864000   
254.500000	0.663000   
255.000000	0.666000   
255.500000	0.634000   
256.000000	0.555000   
256.500000	0.530000   
257.000000	0.442000   
257.500000	0.418000   
258.000000	0.545000   
258.500000	0.566999   
259.000000	0.547000   
259.500000	0.610000   
260.000000	0.812000   
260.500000	0.806000   
261.000000	0.825000   
261.500000	0.930000   
262.000000	1.045000   
262.500000	1.172000   
263.000000	1.117000   
263.500000	1.064000   
264.000000	1.243000   
264.500000	1.270000   
265.000000	1.371000   
265.500000	1.337000   
266.000000	1.490000   
266.500000	1.410000   
267.000000	1.546000   
267.500000	1.410000   
268.000000	1.530000   
268.500000	1.461000   
269.000000	1.528000   
269.500000	1.406000   
270.000000	1.393000   
270.500000	1.478000   
271.000000	1.479000   
271.500000	1.448000   
272.000000	1.321000   
272.500000	1.307000   
273.000000	1.222000   
273.500000	1.087000   
274.000000	1.016000   
274.500000	0.860000   
275.000000	0.868000   
275.500000	0.746000   
276.000000	0.560000   
276.500000	0.474000   
277.000000	0.476000   
277.500000	0.450000   
278.000000	0.397000   
278.500000	0.324000   
279.000000	0.278000   
279.500000	0.198000   
280.000000	0.175000   
280.500000	0.151000   
281.000000	0.113000   
281.500000	0.127000   
282.000000	0.071999   
282.500000	0.043000   
283.000000	0.038000   
283.500000	0.077000   
284.000000	0.070000   
284.500000	0.094000   
285.000000	0.093000   
285.500000	0.071999   
286.000000	0.084000   
286.500000	0.054000   
287.000000	0.073000   
287.500000	0.054000   
288.000000	0.074000   
288.500000	0.045000   
289.000000	0.027000   
289.500000	0.077000   
290.000000	0.070000   
290.500000	0.069000   
291.000000	0.055000   
291.500000	0.067000   
292.000000	0.071999   
292.500000	0.064000   
293.000000	0.073000   
293.500000	0.094000   
294.000000	0.058000   
294.500000	0.092000   
295.000000	0.073000   
295.500000	0.085000   
296.000000	0.094000   
296.500000	0.064000   
297.000000	0.060000   
297.500000	0.065000   
298.000000	0.075000   
298.500000	0.065000   
299.000000	0.090000   
299.500000	0.043000   
300.000000	0.037000   
300.500000	0.075000   
301.000000	0.070000   
301.500000	0.059000   
302.000000	0.074000   
302.500000	0.062000   
303.000000	0.071999   
303.500000	0.075000   
304.000000	0.107000   
304.500000	0.099000   
305.000000	0.108000   
305.500000	0.082000   
306.000000	0.083000   
306.500000	0.064000   
307.000000	0.030000   
307.500000	0.063000   
308.000000	0.068000   
308.500000	0.100000   
309.000000	0.067000   
309.500000	0.061000   
310.000000	0.077000   
310.500000	0.118000   
311.000000	0.096000   
311.500000	0.077000   
312.000000	0.080000   
312.500000	0.081000   
313.000000	0.087999   
313.500000	0.084000   
314.000000	0.115000   
314.500000	0.100000   
315.000000	0.084000   
315.500000	0.094000   
316.000000	0.085999   
316.500000	0.082000   
317.000000	0.063000   
317.500000	0.043000   
318.000000	0.089000   
318.500000	0.041000   
319.000000	0.085000   
319.500000	0.135000   
320.000000	0.085000   
320.500000	0.125000   
321.000000	0.121000   
321.500000	0.078000   
322.000000	0.089000   
322.500000	0.091000   
323.000000	0.130000   
323.500000	0.111000   
324.000000	0.105000   
324.500000	0.082000   
325.000000	0.070000   
325.500000	0.094000   
326.000000	0.089000   
326.500000	0.045000   
327.000000	0.071999   
327.500000	0.134000   
328.000000	0.085000   
328.500000	0.049000   
329.000000	0.062000   
329.500000	0.090000   
330.000000	0.077000   
330.500000	0.115000   
331.000000	0.093000   
331.500000	0.097000   
332.000000	0.102000   
332.500000	0.106000   
333.000000	0.093000   
333.500000	0.049000   
334.000000	0.085000   
334.500000	0.086999   
335.000000	0.092000   
335.500000	0.090000   
336.000000	0.084000   
336.500000	0.089000   
337.000000	0.080000   
337.500000	0.078000   
338.000000	0.073000   
338.500000	0.084000   
339.000000	0.094000   
339.500000	0.087999   
340.000000	0.085999   
340.500000	0.113000   
341.000000	0.079000   
341.500000	0.102000   
342.000000	0.136000   
342.500000	0.105000   
343.000000	0.080000   
343.500000	0.102000   
344.000000	0.070000   
344.500000	0.085000   
345.000000	0.082000   
345.500000	0.147000   
346.000000	0.085000   
346.500000	0.102000   
347.000000	0.125000   
347.500000	0.091000   
348.000000	0.136000   
348.500000	0.131000   
349.000000	0.098000   
349.500000	0.103000   
350.000000	0.089000   
350.500000	0.090000   
351.000000	0.083000   
351.500000	0.113000   
352.000000	0.116000   
352.500000	0.102000   
353.000000	0.073000   
353.500000	0.139000   
354.000000	0.108000   
354.500000	0.133000   
355.000000	0.111000   
355.500000	0.111000   
356.000000	0.149000   
356.500000	0.140000   
357.000000	0.126000   
357.500000	0.154000   
358.000000	0.171000   
358.500000	0.148000   
359.000000	0.125000   
359.500000	0.103000   
360.000000	0.134000   
360.500000	0.119000   
361.000000	0.094000   
361.500000	0.051000   
362.000000	0.095000   
362.500000	0.085999   
363.000000	0.085000   
363.500000	0.085999   
364.000000	0.102000   
364.500000	0.109000   
365.000000	0.116000   
365.500000	0.143000   
366.000000	0.119000   
366.500000	0.109000   
367.000000	0.114000   
367.500000	0.120000   
368.000000	0.131000   
368.500000	0.089000   
369.000000	0.120000   
369.500000	0.128000   
370.000000	0.120000   
370.500000	0.116000   
371.000000	0.140000   
371.500000	0.118000   
372.000000	0.108000   
372.500000	0.114000   
373.000000	0.123000   
373.500000	0.157000   
374.000000	0.064000   
374.500000	0.111000   
375.000000	0.124000   
375.500000	0.111000   
376.000000	0.102000   
376.500000	0.129000   
377.000000	0.117000   
377.500000	0.145000   
378.000000	0.182000   
378.500000	0.136000   
379.000000	0.101000   
379.500000	0.085999   
380.000000	0.116000   
380.500000	0.086999   
381.000000	0.097000   
381.500000	0.103000   
382.000000	0.106000   
382.500000	0.089000   
383.000000	0.111000   
383.500000	0.115000   
384.000000	0.093000   
384.500000	0.119000   
385.000000	0.136000   
385.500000	0.163000   
386.000000	0.104000   
386.500000	0.133000   
387.000000	0.126000   
387.500000	0.128000   
388.000000	0.080000   
388.500000	0.102000   
389.000000	0.133000   
389.500000	0.150000   
390.000000	0.144000   
390.500000	0.109000   
391.000000	0.111000   
391.500000	0.113000   
392.000000	0.138000   
392.500000	0.135000   
393.000000	0.078000   
393.500000	0.100000   
394.000000	0.190000   
394.500000	0.162000   
395.000000	0.129000   
395.500000	0.130000   
396.000000	0.150000   
396.500000	0.099000   
397.000000	0.122000   
397.500000	0.123000   
398.000000	0.121000   
398.500000	0.113000   
399.000000	0.136000   
399.500000	0.118000   
400.000000	0.114000   
400.500000	0.127000   
401.000000	0.093000   
401.500000	0.133000   
402.000000	0.163000   
402.500000	0.107000   
403.000000	0.104000   
403.500000	0.102000   
404.000000	0.133000   
404.500000	0.170000   
405.000000	0.136000   
405.500000	0.082000   
406.000000	0.105000   
406.500000	0.185000   
407.000000	0.151000   
407.500000	0.175000   
408.000000	0.193000   
408.500000	0.089000   
409.000000	0.143000   
409.500000	0.125000   
410.000000	0.153000   
410.500000	0.137000   
411.000000	0.152000   
411.500000	0.104000   
412.000000	0.115000   
412.500000	0.113000   
413.000000	0.131000   
413.500000	0.132000   
414.000000	0.155000   
414.500000	0.123000   
415.000000	0.133000   
415.500000	0.160000   
416.000000	0.145000   
416.500000	0.167000   
417.000000	0.161000   
417.500000	0.115000   
418.000000	0.157000   
418.500000	0.215000   
419.000000	0.203000   
419.500000	0.144000   
420.000000	0.213000   
420.500000	0.162000   
421.000000	0.112000   
421.500000	0.179000   
422.000000	0.171000   
422.500000	0.142000   
423.000000	0.166000   
423.500000	0.197000   
424.000000	0.140000   
424.500000	0.150000   
425.000000	0.175000   
425.500000	0.179000   
426.000000	0.232000   
426.500000	0.196000   
427.000000	0.198000   
427.500000	0.177000   
428.000000	0.242000   
428.500000	0.211000   
429.000000	0.211000   
429.500000	0.165000   
430.000000	0.225000   
430.500000	0.227000   
431.000000	0.200000   
431.500000	0.180000   
432.000000	0.202000   
432.500000	0.196000   
433.000000	0.225000   
433.500000	0.191000   
434.000000	0.178000   
434.500000	0.174000   
435.000000	0.203000   
435.500000	0.205000   
436.000000	0.243000   
436.500000	0.200000   
437.000000	0.220000   
437.500000	0.245000   
438.000000	0.277000   
438.500000	0.260000   
439.000000	0.243000   
439.500000	0.209000   
440.000000	0.168000   
440.500000	0.213000   
441.000000	0.273000   
441.500000	0.257000   
442.000000	0.286000   
442.500000	0.263000   
443.000000	0.277000   
443.500000	0.318000   
444.000000	0.261000   
444.500000	0.226000   
445.000000	0.222000   
445.500000	0.250000   
446.000000	0.342000   
446.500000	0.270000   
447.000000	0.242000   
447.500000	0.242000   
448.000000	0.236000   
448.500000	0.323000   
449.000000	0.287000   
449.500000	0.320000   
450.000000	0.358000   
450.500000	0.332000   
451.000000	0.317000   
451.500000	0.369000   
452.000000	0.319000   
452.500000	0.305000   
453.000000	0.349000   
453.500000	0.430000   
454.000000	0.324000   
454.500000	0.349000   
455.000000	0.407000   
455.500000	0.364000   
456.000000	0.324000   
456.500000	0.446000   
457.000000	0.459000   
457.500000	0.369000   
458.000000	0.359000   
458.500000	0.357000   
459.000000	0.438000   
459.500000	0.418000   
460.000000	0.403000   
460.500000	0.424000   
461.000000	0.394000   
461.500000	0.462000   
462.000000	0.519000   
462.500000	0.388000   
463.000000	0.460000   
463.500000	0.550000   
464.000000	0.524000   
464.500000	0.475000   
465.000000	0.470000   
465.500000	0.506000   
466.000000	0.462000   
466.500000	0.543000   
467.000000	0.495000   
467.500000	0.509000   
468.000000	0.718000   
468.500000	0.602000   
469.000000	0.657000   
469.500000	0.680000   
470.000000	0.677000   
470.500000	0.786000   
471.000000	0.884000   
471.500000	0.952000   
472.000000	1.269000   
472.500000	1.645000   
473.000000	2.147000   
473.500000	2.606000   
474.000000	3.218000   
474.500000	4.167000   
475.000000	5.730000   
475.500000	7.184000   
476.000000	9.351000   
476.500000	11.436000  
477.000000	14.246000  
477.500000	17.571000  
478.000000	20.622000  
478.500000	24.492000  
479.000000	29.455000  
479.500000	33.909000  
480.000000	39.051000  
480.500000	45.483000  
481.000000	51.369000  
481.500000	58.322000  
482.000000	63.348000  
482.500000	71.128000  
483.000000	79.447000  
483.500000	86.730999  
484.000000	93.708000  
484.500000	102.107000 
485.000000	110.239000 
485.500000	117.733000 
486.000000	123.033000 
486.500000	130.744000 
487.000000	137.150000 
487.500000	141.515000 
488.000000	145.584000 
488.500000	150.026000 
489.000000	154.455000 
489.500000	156.714000 
490.000000	157.032000 
490.500000	157.989000 
491.000000	156.884000 
491.500000	156.442000 
492.000000	153.903000 
492.500000	150.442000 
493.000000	143.789000 
493.500000	138.673000 
494.000000	134.110000 
494.500000	127.564000 
495.000000	122.358000 
495.500000	113.505000 
496.000000	107.274000 
496.500000	98.302000  
497.000000	90.003000  
497.500000	82.336000  
498.000000	76.417000  
498.500000	68.843000  
499.000000	62.064000  
499.500000	53.826000  
500.000000	49.772000  
500.500000	44.263000  
501.000000	38.402000  
501.500000	33.550000  
502.000000	28.158000  
502.500000	24.123000  
503.000000	20.757000  
503.500000	17.612000  
504.000000	14.328000  
504.500000	12.255000  
505.000000	9.789999   
505.500000	7.785000   
506.000000	6.593000   
506.500000	5.539000   
507.000000	4.326000   
507.500000	3.536000   
508.000000	2.946000   
508.500000	2.228000   
509.000000	1.784000   
509.500000	1.567000   
510.000000	1.275000   
510.500000	1.181000   
511.000000	1.129000   
511.500000	1.145000   
512.000000	1.057000   
512.500000	0.937000   
513.000000	0.819000   
513.500000	0.695000   
514.000000	0.809000   
514.500000	0.855000   
515.000000	0.723000   
515.500000	0.775000   
516.000000	0.860000   
516.500000	0.750000   
517.000000	0.627000   
517.500000	0.606000   
518.000000	0.809000   
518.500000	0.755000   
519.000000	0.772000   
519.500000	0.754000   
520.000000	0.809000   
520.500000	0.912000   
521.000000	0.955000   
521.500000	0.967000   
522.000000	0.981000   
522.500000	0.916000   
523.000000	0.986000   
523.500000	1.122000   
524.000000	1.276000   
524.500000	1.356000   
525.000000	1.457000   
525.500000	1.426000   
526.000000	1.601000   
526.500000	1.988000   
527.000000	1.868000   
527.500000	2.080000   
528.000000	2.177000   
528.500000	2.495000   
529.000000	2.751000   
529.500000	2.811000   
530.000000	2.863000   
530.500000	3.069000   
531.000000	3.309000   
531.500000	3.446000   
532.000000	3.658000   
532.500000	4.000000   
533.000000	3.960000   
533.500000	4.234000   
534.000000	4.377000   
534.500000	4.587000   
535.000000	4.579000   
535.500000	4.961000   
536.000000	5.406000   
536.500000	4.879000   
537.000000	5.001000   
537.500000	5.264000   
538.000000	5.180000   
538.500000	5.397000   
539.000000	5.232000   
539.500000	5.184000   
540.000000	5.584000   
540.500000	4.761000   
541.000000	4.465000   
541.500000	4.263000   
542.000000	4.237000   
542.500000	3.948000   
543.000000	4.072000   
543.500000	3.939000   
544.000000	3.590000   
544.500000	3.090000   
545.000000	3.030000   
545.500000	2.715000   
546.000000	2.363000   
546.500000	2.068000   
547.000000	2.108000   
547.500000	1.800000   
548.000000	1.679000   
548.500000	1.391000   

