PE FL                   SPECTRUM    ASCII       PEDS        1.60        
  -1
0124DI~2.SP
19/01/24
10:42:11.00
19/01/24
10:42:11.00


548.500000
1









LS45
430.00
10.00
10.00
SCAN
1
16
100
100
0
600
0
1
0
1
7
ON
435 365 
0 0 0
#HDR
-1
-1
#GR
NM
INT 
0.00002384185791015625
0.0
230.000000
0.500000
638
8
262.646000
0.012000
#DATA
230.000000	0.087999   
230.500000	0.098000   
231.000000	0.086999   
231.500000	0.086999   
232.000000	0.030000   
232.500000	0.069000   
233.000000	0.122000   
233.500000	0.112000   
234.000000	0.058000   
234.500000	0.061000   
235.000000	0.083000   
235.500000	0.056000   
236.000000	0.062000   
236.500000	0.079000   
237.000000	0.055000   
237.500000	0.064000   
238.000000	0.077000   
238.500000	0.064000   
239.000000	0.071999   
239.500000	0.070999   
240.000000	0.078000   
240.500000	0.095000   
241.000000	0.056000   
241.500000	0.061000   
242.000000	0.052000   
242.500000	0.033000   
243.000000	0.041000   
243.500000	0.062000   
244.000000	0.070000   
244.500000	0.070999   
245.000000	0.065000   
245.500000	0.091000   
246.000000	0.036000   
246.500000	0.058000   
247.000000	0.067000   
247.500000	0.040000   
248.000000	0.063000   
248.500000	0.042000   
249.000000	0.068000   
249.500000	0.038000   
250.000000	0.067000   
250.500000	0.062000   
251.000000	0.070000   
251.500000	0.061000   
252.000000	0.038000   
252.500000	0.069000   
253.000000	0.066000   
253.500000	0.059000   
254.000000	0.059000   
254.500000	0.056000   
255.000000	0.046000   
255.500000	0.051000   
256.000000	0.073000   
256.500000	0.049000   
257.000000	0.056000   
257.500000	0.079000   
258.000000	0.041000   
258.500000	0.031000   
259.000000	0.037000   
259.500000	0.043000   
260.000000	0.048000   
260.500000	0.078000   
261.000000	0.079000   
261.500000	0.064000   
262.000000	0.057000   
262.500000	0.066000   
263.000000	0.058000   
263.500000	0.046000   
264.000000	0.023000   
264.500000	0.061000   
265.000000	0.067000   
265.500000	0.074000   
266.000000	0.112000   
266.500000	0.026000   
267.000000	0.069000   
267.500000	0.052000   
268.000000	0.057000   
268.500000	0.083000   
269.000000	0.046000   
269.500000	0.044000   
270.000000	0.048000   
270.500000	0.061000   
271.000000	0.048000   
271.500000	0.012000   
272.000000	0.059000   
272.500000	0.063000   
273.000000	0.090000   
273.500000	0.074000   
274.000000	0.074000   
274.500000	0.069000   
275.000000	0.076000   
275.500000	0.087999   
276.000000	0.087999   
276.500000	0.078000   
277.000000	0.084000   
277.500000	0.076000   
278.000000	0.063000   
278.500000	0.116000   
279.000000	0.092000   
279.500000	0.091000   
280.000000	0.045000   
280.500000	0.058000   
281.000000	0.129000   
281.500000	0.085999   
282.000000	0.050000   
282.500000	0.068000   
283.000000	0.086999   
283.500000	0.061000   
284.000000	0.097000   
284.500000	0.101000   
285.000000	0.085999   
285.500000	0.086999   
286.000000	0.086999   
286.500000	0.115000   
287.000000	0.092000   
287.500000	0.090000   
288.000000	0.091000   
288.500000	0.106000   
289.000000	0.058000   
289.500000	0.112000   
290.000000	0.078000   
290.500000	0.039000   
291.000000	0.084000   
291.500000	0.103000   
292.000000	0.056000   
292.500000	0.067000   
293.000000	0.086999   
293.500000	0.078000   
294.000000	0.112000   
294.500000	0.085000   
295.000000	0.075000   
295.500000	0.075000   
296.000000	0.096000   
296.500000	0.141000   
297.000000	0.109000   
297.500000	0.066000   
298.000000	0.060000   
298.500000	0.127000   
299.000000	0.103000   
299.500000	0.136000   
300.000000	0.122000   
300.500000	0.110000   
301.000000	0.111000   
301.500000	0.061000   
302.000000	0.109000   
302.500000	0.099000   
303.000000	0.127000   
303.500000	0.093000   
304.000000	0.099000   
304.500000	0.095000   
305.000000	0.100000   
305.500000	0.118000   
306.000000	0.129000   
306.500000	0.168000   
307.000000	0.110000   
307.500000	0.108000   
308.000000	0.130000   
308.500000	0.152000   
309.000000	0.149000   
309.500000	0.157000   
310.000000	0.135000   
310.500000	0.177000   
311.000000	0.111000   
311.500000	0.118000   
312.000000	0.115000   
312.500000	0.121000   
313.000000	0.120000   
313.500000	0.096000   
314.000000	0.127000   
314.500000	0.164000   
315.000000	0.198000   
315.500000	0.174000   
316.000000	0.130000   
316.500000	0.099000   
317.000000	0.111000   
317.500000	0.139000   
318.000000	0.131000   
318.500000	0.133000   
319.000000	0.217000   
319.500000	0.155000   
320.000000	0.225000   
320.500000	0.230000   
321.000000	0.165000   
321.500000	0.218000   
322.000000	0.238000   
322.500000	0.183000   
323.000000	0.176000   
323.500000	0.181000   
324.000000	0.164000   
324.500000	0.160000   
325.000000	0.185000   
325.500000	0.162000   
326.000000	0.179000   
326.500000	0.199000   
327.000000	0.182000   
327.500000	0.172000   
328.000000	0.185000   
328.500000	0.188000   
329.000000	0.193000   
329.500000	0.187000   
330.000000	0.244000   
330.500000	0.221000   
331.000000	0.239000   
331.500000	0.250000   
332.000000	0.190000   
332.500000	0.212000   
333.000000	0.240000   
333.500000	0.204000   
334.000000	0.198000   
334.500000	0.149000   
335.000000	0.114000   
335.500000	0.136000   
336.000000	0.153000   
336.500000	0.164000   
337.000000	0.219000   
337.500000	0.175000   
338.000000	0.112000   
338.500000	0.148000   
339.000000	0.229000   
339.500000	0.241000   
340.000000	0.176000   
340.500000	0.239000   
341.000000	0.267000   
341.500000	0.293000   
342.000000	0.228000   
342.500000	0.172000   
343.000000	0.129000   
343.500000	0.247000   
344.000000	0.209000   
344.500000	0.247000   
345.000000	0.146000   
345.500000	0.165000   
346.000000	0.214000   
346.500000	0.200000   
347.000000	0.156000   
347.500000	0.191000   
348.000000	0.219000   
348.500000	0.206000   
349.000000	0.130000   
349.500000	0.211000   
350.000000	0.224000   
350.500000	0.225000   
351.000000	0.143000   
351.500000	0.151000   
352.000000	0.139000   
352.500000	0.207000   
353.000000	0.170000   
353.500000	0.156000   
354.000000	0.209000   
354.500000	0.164000   
355.000000	0.214000   
355.500000	0.169000   
356.000000	0.117000   
356.500000	0.199000   
357.000000	0.203000   
357.500000	0.215000   
358.000000	0.201000   
358.500000	0.267000   
359.000000	0.219000   
359.500000	0.190000   
360.000000	0.198000   
360.500000	0.239000   
361.000000	0.191000   
361.500000	0.168000   
362.000000	0.166000   
362.500000	0.168000   
363.000000	0.200000   
363.500000	0.201000   
364.000000	0.215000   
364.500000	0.258000   
365.000000	0.242000   
365.500000	0.177000   
366.000000	0.168000   
366.500000	0.157000   
367.000000	0.215000   
367.500000	0.230000   
368.000000	0.269000   
368.500000	0.277000   
369.000000	0.195000   
369.500000	0.211000   
370.000000	0.272000   
370.500000	0.255000   
371.000000	0.277000   
371.500000	0.262000   
372.000000	0.284000   
372.500000	0.266000   
373.000000	0.235000   
373.500000	0.318000   
374.000000	0.318000   
374.500000	0.369000   
375.000000	0.306000   
375.500000	0.330000   
376.000000	0.297000   
376.500000	0.318000   
377.000000	0.356000   
377.500000	0.342000   
378.000000	0.280000   
378.500000	0.334000   
379.000000	0.312000   
379.500000	0.354000   
380.000000	0.274000   
380.500000	0.329000   
381.000000	0.361000   
381.500000	0.378000   
382.000000	0.373000   
382.500000	0.392000   
383.000000	0.427000   
383.500000	0.404000   
384.000000	0.385000   
384.500000	0.317000   
385.000000	0.372000   
385.500000	0.417000   
386.000000	0.457000   
386.500000	0.414000   
387.000000	0.522000   
387.500000	0.438000   
388.000000	0.472000   
388.500000	0.443000   
389.000000	0.494000   
389.500000	0.441000   
390.000000	0.525000   
390.500000	0.552000   
391.000000	0.542000   
391.500000	0.528000   
392.000000	0.497000   
392.500000	0.598000   
393.000000	0.571000   
393.500000	0.421000   
394.000000	0.524000   
394.500000	0.668000   
395.000000	0.494000   
395.500000	0.609000   
396.000000	0.644000   
396.500000	0.621000   
397.000000	0.525000   
397.500000	0.577000   
398.000000	0.648000   
398.500000	0.630000   
399.000000	0.647000   
399.500000	0.699000   
400.000000	0.740000   
400.500000	0.776000   
401.000000	0.746000   
401.500000	0.758000   
402.000000	0.790000   
402.500000	0.749000   
403.000000	0.786000   
403.500000	0.842000   
404.000000	0.840000   
404.500000	0.859000   
405.000000	0.811000   
405.500000	0.930000   
406.000000	1.087000   
406.500000	1.387000   
407.000000	1.567000   
407.500000	1.964000   
408.000000	2.495000   
408.500000	3.050000   
409.000000	4.159000   
409.500000	5.197000   
410.000000	7.076000   
410.500000	8.879000   
411.000000	11.473000  
411.500000	14.500000  
412.000000	18.356000  
412.500000	24.011000  
413.000000	28.867000  
413.500000	34.411000  
414.000000	40.040000  
414.500000	49.439000  
415.000000	55.359000  
415.500000	66.328999  
416.000000	77.367999  
416.500000	88.409000  
417.000000	97.441999  
417.500000	110.485000 
418.000000	123.709000 
418.500000	138.634000 
419.000000	150.218000 
419.500000	164.805000 
420.000000	176.073000 
420.500000	190.605000 
421.000000	200.263000 
421.500000	212.817000 
422.000000	223.601000 
422.500000	236.954000 
423.000000	243.721000 
423.500000	248.264000 
424.000000	251.397000 
424.500000	258.483000 
425.000000	261.965000 
425.500000	262.646000 
426.000000	260.580000 
426.500000	259.401000 
427.000000	257.027000 
427.500000	253.643000 
428.000000	246.770000 
428.500000	236.317000 
429.000000	227.797000 
429.500000	217.074000 
430.000000	207.992000 
430.500000	199.558000 
431.000000	181.402000 
431.500000	169.675000 
432.000000	156.631000 
432.500000	147.555000 
433.000000	132.197000 
433.500000	122.998000 
434.000000	108.042000 
434.500000	96.249000  
435.000000	84.681000  
435.500000	78.069999  
436.000000	67.182000  
436.500000	59.353000  
437.000000	51.367000  
437.500000	44.934000  
438.000000	37.242000  
438.500000	32.217000  
439.000000	26.172000  
439.500000	22.144000  
440.000000	17.558000  
440.500000	14.141000  
441.000000	11.092000  
441.500000	9.616000   
442.000000	7.746000   
442.500000	6.011000   
443.000000	5.133000   
443.500000	4.402000   
444.000000	3.192000   
444.500000	2.777000   
445.000000	2.625000   
445.500000	2.285000   
446.000000	2.121000   
446.500000	2.004000   
447.000000	1.936000   
447.500000	1.785000   
448.000000	1.832000   
448.500000	1.867000   
449.000000	2.048000   
449.500000	2.152000   
450.000000	2.091000   
450.500000	2.064000   
451.000000	2.039000   
451.500000	2.075000   
452.000000	2.221000   
452.500000	2.305000   
453.000000	2.250000   
453.500000	2.080000   
454.000000	2.287000   
454.500000	2.375000   
455.000000	2.483000   
455.500000	2.503000   
456.000000	2.454000   
456.500000	2.382000   
457.000000	2.461000   
457.500000	2.421000   
458.000000	2.572000   
458.500000	2.605000   
459.000000	2.375000   
459.500000	2.173000   
460.000000	2.346000   
460.500000	2.327000   
461.000000	2.179000   
461.500000	2.200000   
462.000000	2.209000   
462.500000	2.288000   
463.000000	2.284000   
463.500000	2.216000   
464.000000	2.161000   
464.500000	2.041000   
465.000000	2.062000   
465.500000	1.830000   
466.000000	1.722000   
466.500000	1.533000   
467.000000	1.594000   
467.500000	1.597000   
468.000000	1.504000   
468.500000	1.227000   
469.000000	1.192000   
469.500000	1.304000   
470.000000	1.189000   
470.500000	1.082000   
471.000000	1.113000   
471.500000	0.983000   
472.000000	0.982000   
472.500000	0.944000   
473.000000	0.819000   
473.500000	0.991000   
474.000000	0.986000   
474.500000	0.889000   
475.000000	0.900000   
475.500000	0.931000   
476.000000	0.952000   
476.500000	1.011000   
477.000000	1.054000   
477.500000	1.095000   
478.000000	1.272000   
478.500000	1.383000   
479.000000	1.328000   
479.500000	1.375000   
480.000000	1.545000   
480.500000	1.798000   
481.000000	1.897000   
481.500000	1.978000   
482.000000	2.142000   
482.500000	2.496000   
483.000000	2.657000   
483.500000	2.704000   
484.000000	3.284000   
484.500000	3.669000   
485.000000	3.933000   
485.500000	3.948000   
486.000000	4.377000   
486.500000	4.483000   
487.000000	4.997000   
487.500000	5.334000   
488.000000	5.618000   
488.500000	6.247000   
489.000000	6.736000   
489.500000	7.143000   
490.000000	7.235000   
490.500000	7.786000   
491.000000	8.047000   
491.500000	8.849000   
492.000000	9.175000   
492.500000	9.382000   
493.000000	9.186999   
493.500000	9.377000   
494.000000	9.635999   
494.500000	9.776000   
495.000000	10.234000  
495.500000	10.334000  
496.000000	10.189000  
496.500000	10.328000  
497.000000	11.018000  
497.500000	10.611000  
498.000000	10.769000  
498.500000	10.328000  
499.000000	10.470000  
499.500000	10.183000  
500.000000	10.464000  
500.500000	10.105000  
501.000000	9.765000   
501.500000	9.491000   
502.000000	8.878000   
502.500000	8.744999   
503.000000	8.398999   
503.500000	8.053000   
504.000000	7.808000   
504.500000	7.322000   
505.000000	6.751000   
505.500000	6.963000   
506.000000	6.364000   
506.500000	5.996000   
507.000000	6.060000   
507.500000	5.478000   
508.000000	5.212000   
508.500000	4.870000   
509.000000	4.154000   
509.500000	4.040000   
510.000000	3.642000   
510.500000	3.527000   
511.000000	3.423000   
511.500000	2.886000   
512.000000	2.613000   
512.500000	2.333000   
513.000000	2.014000   
513.500000	2.190000   
514.000000	1.932000   
514.500000	1.552000   
515.000000	1.404000   
515.500000	1.482000   
516.000000	1.348000   
516.500000	1.096000   
517.000000	1.038000   
517.500000	0.907000   
518.000000	0.826000   
518.500000	0.699000   
519.000000	0.651000   
519.500000	0.643000   
520.000000	0.587000   
520.500000	0.517000   
521.000000	0.534000   
521.500000	0.434000   
522.000000	0.425000   
522.500000	0.425000   
523.000000	0.379000   
523.500000	0.420000   
524.000000	0.336000   
524.500000	0.265000   
525.000000	0.283000   
525.500000	0.337000   
526.000000	0.283000   
526.500000	0.315000   
527.000000	0.238000   
527.500000	0.240000   
528.000000	0.202000   
528.500000	0.246000   
529.000000	0.182000   
529.500000	0.267000   
530.000000	0.315000   
530.500000	0.192000   
531.000000	0.280000   
531.500000	0.209000   
532.000000	0.223000   
532.500000	0.234000   
533.000000	0.120000   
533.500000	0.185000   
534.000000	0.206000   
534.500000	0.209000   
535.000000	0.152000   
535.500000	0.267000   
536.000000	0.210000   
536.500000	0.196000   
537.000000	0.157000   
537.500000	0.118000   
538.000000	0.124000   
538.500000	0.175000   
539.000000	0.118000   
539.500000	0.147000   
540.000000	0.183000   
540.500000	0.180000   
541.000000	0.129000   
541.500000	0.192000   
542.000000	0.117000   
542.500000	0.152000   
543.000000	0.174000   
543.500000	0.149000   
544.000000	0.136000   
544.500000	0.125000   
545.000000	0.090000   
545.500000	0.097000   
546.000000	0.104000   
546.500000	0.132000   
547.000000	0.139000   
547.500000	0.137000   
548.000000	0.077000   
548.500000	0.074000   

