PE FL                   SPECTRUM    ASCII       PEDS        1.60        
  -1
0184F9~1.SP
19/01/24
10:24:06.00
19/01/24
10:24:06.00


548.500000
1









LS45
310.00
10.00
10.00
SCAN
1
16
100
100
0
600
0
1
0
1
7
ON
435 365 
0 0 0
#HDR
-1
-1
#GR
NM
INT 
0.00002384185791015625
0.0
230.000000
0.500000
638
8
491.948000
0.153000
#DATA
230.000000	0.370000   
230.500000	0.273000   
231.000000	0.253000   
231.500000	0.269000   
232.000000	0.235000   
232.500000	0.230000   
233.000000	0.373000   
233.500000	0.293000   
234.000000	0.153000   
234.500000	0.255000   
235.000000	0.352000   
235.500000	0.319000   
236.000000	0.250000   
236.500000	0.344000   
237.000000	0.278000   
237.500000	0.308000   
238.000000	0.321000   
238.500000	0.274000   
239.000000	0.305000   
239.500000	0.346000   
240.000000	0.225000   
240.500000	0.245000   
241.000000	0.251000   
241.500000	0.330000   
242.000000	0.314000   
242.500000	0.272000   
243.000000	0.333000   
243.500000	0.325000   
244.000000	0.393000   
244.500000	0.292000   
245.000000	0.213000   
245.500000	0.342000   
246.000000	0.383000   
246.500000	0.275000   
247.000000	0.334000   
247.500000	0.354000   
248.000000	0.399000   
248.500000	0.389000   
249.000000	0.388000   
249.500000	0.383000   
250.000000	0.399000   
250.500000	0.444000   
251.000000	0.256000   
251.500000	0.303000   
252.000000	0.390000   
252.500000	0.495000   
253.000000	0.460000   
253.500000	0.475000   
254.000000	0.411000   
254.500000	0.345000   
255.000000	0.298000   
255.500000	0.371000   
256.000000	0.416000   
256.500000	0.455000   
257.000000	0.448000   
257.500000	0.559000   
258.000000	0.450000   
258.500000	0.510000   
259.000000	0.490000   
259.500000	0.444000   
260.000000	0.381000   
260.500000	0.489000   
261.000000	0.419000   
261.500000	0.544000   
262.000000	0.671000   
262.500000	0.540000   
263.000000	0.582000   
263.500000	0.729000   
264.000000	0.694000   
264.500000	0.626000   
265.000000	0.627000   
265.500000	0.533000   
266.000000	0.533000   
266.500000	0.591000   
267.000000	0.633000   
267.500000	0.695000   
268.000000	0.878000   
268.500000	0.768000   
269.000000	0.889000   
269.500000	0.937999   
270.000000	0.713000   
270.500000	0.821000   
271.000000	0.857000   
271.500000	0.755000   
272.000000	0.793000   
272.500000	0.805000   
273.000000	0.993000   
273.500000	0.955000   
274.000000	1.052000   
274.500000	1.067000   
275.000000	1.001000   
275.500000	0.856000   
276.000000	1.055000   
276.500000	1.154000   
277.000000	1.137000   
277.500000	1.253000   
278.000000	1.221000   
278.500000	1.340000   
279.000000	1.248000   
279.500000	1.200000   
280.000000	1.295000   
280.500000	1.199000   
281.000000	1.319000   
281.500000	1.585000   
282.000000	1.754000   
282.500000	1.796000   
283.000000	1.905000   
283.500000	1.859000   
284.000000	1.830000   
284.500000	1.904000   
285.000000	1.921000   
285.500000	2.030000   
286.000000	2.065000   
286.500000	2.423000   
287.000000	2.962000   
287.500000	3.621000   
288.000000	4.189000   
288.500000	5.296000   
289.000000	6.523000   
289.500000	7.298000   
290.000000	9.073000   
290.500000	11.976000  
291.000000	15.255000  
291.500000	18.963000  
292.000000	23.506000  
292.500000	28.303000  
293.000000	36.460000  
293.500000	42.649000  
294.000000	50.865000  
294.500000	58.258000  
295.000000	67.273000  
295.500000	79.623000  
296.000000	91.561000  
296.500000	108.186000 
297.000000	120.066000 
297.500000	137.291000 
298.000000	153.036000 
298.500000	174.101000 
299.000000	190.653000 
299.500000	216.046000 
300.000000	237.762000 
300.500000	262.354000 
301.000000	284.116000 
301.500000	306.840000 
302.000000	326.528000 
302.500000	346.357000 
303.000000	374.450000 
303.500000	388.247000 
304.000000	412.431000 
304.500000	428.611000 
305.000000	445.138000 
305.500000	454.342000 
306.000000	465.271000 
306.500000	478.278000 
307.000000	482.452000 
307.500000	487.766000 
308.000000	491.948000 
308.500000	490.248000 
309.000000	487.241000 
309.500000	475.848000 
310.000000	464.956000 
310.500000	451.392000 
311.000000	436.405000 
311.500000	420.382000 
312.000000	405.936000 
312.500000	382.538000 
313.000000	362.264000 
313.500000	340.141000 
314.000000	316.713000 
314.500000	286.277000 
315.000000	265.726000 
315.500000	237.699000 
316.000000	219.032000 
316.500000	196.088000 
317.000000	173.853000 
317.500000	156.295000 
318.000000	136.169000 
318.500000	118.851000 
319.000000	101.127000 
319.500000	88.467000  
320.000000	72.233000  
320.500000	61.033000  
321.000000	50.699000  
321.500000	42.128000  
322.000000	35.180000  
322.500000	29.196000  
323.000000	24.237000  
323.500000	21.182000  
324.000000	19.074000  
324.500000	16.699000  
325.000000	14.851000  
325.500000	15.075000  
326.000000	15.199000  
326.500000	15.412000  
327.000000	16.714000  
327.500000	17.047000  
328.000000	18.599000  
328.500000	21.076000  
329.000000	23.156000  
329.500000	25.357000  
330.000000	26.943000  
330.500000	31.272000  
331.000000	34.745000  
331.500000	38.502000  
332.000000	41.871000  
332.500000	44.897000  
333.000000	49.145000  
333.500000	53.232000  
334.000000	56.616000  
334.500000	60.774000  
335.000000	65.060000  
335.500000	69.421000  
336.000000	73.512000  
336.500000	79.084000  
337.000000	81.339000  
337.500000	86.247000  
338.000000	89.474000  
338.500000	93.151000  
339.000000	96.831999  
339.500000	98.090000  
340.000000	100.626000 
340.500000	104.084000 
341.000000	104.428000 
341.500000	107.652000 
342.000000	107.488000 
342.500000	108.385000 
343.000000	107.597000 
343.500000	106.007000 
344.000000	107.030000 
344.500000	106.281000 
345.000000	102.829000 
345.500000	101.511000 
346.000000	97.000000  
346.500000	93.386000  
347.000000	91.046000  
347.500000	86.677000  
348.000000	84.121000  
348.500000	80.164000  
349.000000	75.724999  
349.500000	71.876000  
350.000000	67.465999  
350.500000	62.262000  
351.000000	56.439000  
351.500000	52.233000  
352.000000	47.152000  
352.500000	44.085000  
353.000000	40.122000  
353.500000	36.523000  
354.000000	33.607000  
354.500000	29.119000  
355.000000	24.834000  
355.500000	22.108000  
356.000000	19.764000  
356.500000	17.717000  
357.000000	15.547000  
357.500000	13.637000  
358.000000	11.727000  
358.500000	9.740000   
359.000000	8.185000   
359.500000	7.962000   
360.000000	7.215000   
360.500000	6.209000   
361.000000	5.339000   
361.500000	4.641000   
362.000000	4.332000   
362.500000	3.518000   
363.000000	3.216000   
363.500000	2.923000   
364.000000	2.909000   
364.500000	2.927000   
365.000000	2.592000   
365.500000	2.512000   
366.000000	2.107000   
366.500000	2.099000   
367.000000	1.985000   
367.500000	2.200000   
368.000000	2.107000   
368.500000	2.052000   
369.000000	2.061000   
369.500000	1.948000   
370.000000	1.752000   
370.500000	2.142000   
371.000000	2.077000   
371.500000	1.961000   
372.000000	1.900000   
372.500000	1.825000   
373.000000	2.018000   
373.500000	1.702000   
374.000000	1.596000   
374.500000	1.661000   
375.000000	1.629000   
375.500000	1.771000   
376.000000	1.471000   
376.500000	1.541000   
377.000000	1.558000   
377.500000	1.514000   
378.000000	1.450000   
378.500000	1.543000   
379.000000	1.665000   
379.500000	1.481000   
380.000000	1.708000   
380.500000	1.735000   
381.000000	1.720000   
381.500000	1.390000   
382.000000	1.366000   
382.500000	1.557000   
383.000000	1.329000   
383.500000	1.413000   
384.000000	1.451000   
384.500000	1.724000   
385.000000	1.407000   
385.500000	1.776000   
386.000000	1.752000   
386.500000	1.635000   
387.000000	1.848000   
387.500000	1.678000   
388.000000	1.512000   
388.500000	1.783000   
389.000000	1.625000   
389.500000	1.836000   
390.000000	1.685000   
390.500000	1.500000   
391.000000	1.568000   
391.500000	1.659000   
392.000000	1.611000   
392.500000	1.480000   
393.000000	1.564000   
393.500000	1.372000   
394.000000	1.328000   
394.500000	1.457000   
395.000000	1.564000   
395.500000	1.661000   
396.000000	1.402000   
396.500000	1.486000   
397.000000	1.475000   
397.500000	1.481000   
398.000000	1.791000   
398.500000	1.509000   
399.000000	1.444000   
399.500000	1.520000   
400.000000	1.597000   
400.500000	1.432000   
401.000000	1.381000   
401.500000	1.391000   
402.000000	1.651000   
402.500000	1.381000   
403.000000	1.507000   
403.500000	1.475000   
404.000000	1.384000   
404.500000	1.378000   
405.000000	1.397000   
405.500000	1.389000   
406.000000	1.350000   
406.500000	1.396000   
407.000000	1.419000   
407.500000	1.555000   
408.000000	1.417000   
408.500000	1.341000   
409.000000	1.368000   
409.500000	1.104000   
410.000000	1.319000   
410.500000	1.345000   
411.000000	1.401000   
411.500000	1.314000   
412.000000	1.385000   
412.500000	1.476000   
413.000000	1.241000   
413.500000	1.448000   
414.000000	1.383000   
414.500000	1.185000   
415.000000	1.196000   
415.500000	1.319000   
416.000000	1.200000   
416.500000	1.348000   
417.000000	1.253000   
417.500000	1.167000   
418.000000	1.256000   
418.500000	1.488000   
419.000000	1.320000   
419.500000	1.430000   
420.000000	1.541000   
420.500000	1.350000   
421.000000	1.419000   
421.500000	1.247000   
422.000000	1.451000   
422.500000	1.354000   
423.000000	1.464000   
423.500000	1.259000   
424.000000	1.308000   
424.500000	1.241000   
425.000000	1.126000   
425.500000	1.157000   
426.000000	1.480000   
426.500000	1.442000   
427.000000	1.485000   
427.500000	1.419000   
428.000000	1.498000   
428.500000	1.311000   
429.000000	1.362000   
429.500000	1.395000   
430.000000	1.187000   
430.500000	1.033000   
431.000000	1.013000   
431.500000	1.195000   
432.000000	1.139000   
432.500000	1.262000   
433.000000	1.208000   
433.500000	1.447000   
434.000000	1.191000   
434.500000	0.987000   
435.000000	0.978000   
435.500000	0.990000   
436.000000	1.405000   
436.500000	1.294000   
437.000000	1.153000   
437.500000	1.140000   
438.000000	1.339000   
438.500000	1.101000   
439.000000	1.173000   
439.500000	0.969000   
440.000000	1.147000   
440.500000	1.337000   
441.000000	1.220000   
441.500000	1.305000   
442.000000	1.052000   
442.500000	1.125000   
443.000000	1.229000   
443.500000	1.112000   
444.000000	1.070000   
444.500000	1.096000   
445.000000	1.105000   
445.500000	1.342000   
446.000000	1.326000   
446.500000	1.370000   
447.000000	1.168000   
447.500000	1.183000   
448.000000	1.189000   
448.500000	1.266000   
449.000000	1.148000   
449.500000	1.147000   
450.000000	1.398000   
450.500000	1.238000   
451.000000	1.317000   
451.500000	1.309000   
452.000000	1.222000   
452.500000	1.212000   
453.000000	1.231000   
453.500000	1.428000   
454.000000	1.146000   
454.500000	1.191000   
455.000000	1.334000   
455.500000	1.179000   
456.000000	1.290000   
456.500000	1.361000   
457.000000	1.339000   
457.500000	1.296000   
458.000000	1.215000   
458.500000	1.361000   
459.000000	1.290000   
459.500000	1.173000   
460.000000	1.252000   
460.500000	1.228000   
461.000000	1.053000   
461.500000	1.182000   
462.000000	1.201000   
462.500000	1.325000   
463.000000	1.189000   
463.500000	1.370000   
464.000000	1.199000   
464.500000	1.169000   
465.000000	1.307000   
465.500000	1.369000   
466.000000	1.278000   
466.500000	1.283000   
467.000000	1.235000   
467.500000	1.391000   
468.000000	1.128000   
468.500000	1.010000   
469.000000	1.130000   
469.500000	1.181000   
470.000000	1.121000   
470.500000	1.190000   
471.000000	0.932000   
471.500000	1.198000   
472.000000	0.980000   
472.500000	1.184000   
473.000000	1.285000   
473.500000	1.050000   
474.000000	0.852000   
474.500000	1.003000   
475.000000	0.907000   
475.500000	1.019000   
476.000000	1.134000   
476.500000	0.869000   
477.000000	1.153000   
477.500000	1.061000   
478.000000	0.882000   
478.500000	0.860000   
479.000000	1.077000   
479.500000	1.082000   
480.000000	1.139000   
480.500000	1.163000   
481.000000	1.048000   
481.500000	1.035000   
482.000000	1.066000   
482.500000	0.957000   
483.000000	0.972000   
483.500000	1.072000   
484.000000	1.021000   
484.500000	1.124000   
485.000000	0.998000   
485.500000	0.949000   
486.000000	1.371000   
486.500000	1.214000   
487.000000	1.224000   
487.500000	1.060000   
488.000000	1.352000   
488.500000	1.118000   
489.000000	1.143000   
489.500000	1.109000   
490.000000	1.161000   
490.500000	1.196000   
491.000000	1.244000   
491.500000	1.285000   
492.000000	1.142000   
492.500000	1.170000   
493.000000	1.262000   
493.500000	1.387000   
494.000000	1.322000   
494.500000	1.283000   
495.000000	0.988000   
495.500000	1.087000   
496.000000	1.166000   
496.500000	1.284000   
497.000000	1.217000   
497.500000	1.010000   
498.000000	1.382000   
498.500000	1.317000   
499.000000	1.217000   
499.500000	1.116000   
500.000000	1.033000   
500.500000	1.001000   
501.000000	1.192000   
501.500000	1.023000   
502.000000	0.984000   
502.500000	0.966000   
503.000000	0.981000   
503.500000	0.915000   
504.000000	0.866000   
504.500000	0.987000   
505.000000	0.896000   
505.500000	1.015000   
506.000000	0.798000   
506.500000	1.090000   
507.000000	1.018000   
507.500000	1.000000   
508.000000	0.877000   
508.500000	1.097000   
509.000000	1.022000   
509.500000	0.807000   
510.000000	0.995000   
510.500000	0.970000   
511.000000	0.814999   
511.500000	0.838000   
512.000000	0.962000   
512.500000	0.915000   
513.000000	0.897000   
513.500000	1.027000   
514.000000	1.039000   
514.500000	0.761000   
515.000000	0.831000   
515.500000	1.045000   
516.000000	1.046000   
516.500000	0.989000   
517.000000	1.068000   
517.500000	1.092000   
518.000000	1.012000   
518.500000	1.034000   
519.000000	1.016000   
519.500000	1.032000   
520.000000	1.164000   
520.500000	1.097000   
521.000000	1.119000   
521.500000	1.156000   
522.000000	0.990000   
522.500000	1.034000   
523.000000	1.133000   
523.500000	1.028000   
524.000000	1.027000   
524.500000	1.381000   
525.000000	1.132000   
525.500000	0.915000   
526.000000	0.619000   
526.500000	0.961000   
527.000000	1.247000   
527.500000	0.955000   
528.000000	0.945000   
528.500000	1.053000   
529.000000	0.849000   
529.500000	0.810000   
530.000000	1.073000   
530.500000	0.980000   
531.000000	1.029000   
531.500000	0.944000   
532.000000	0.966000   
532.500000	1.046000   
533.000000	0.902000   
533.500000	0.902000   
534.000000	0.988000   
534.500000	0.824000   
535.000000	1.024000   
535.500000	1.065000   
536.000000	1.235000   
536.500000	0.915000   
537.000000	1.179000   
537.500000	0.985000   
538.000000	0.914000   
538.500000	0.939999   
539.000000	1.076000   
539.500000	0.972000   
540.000000	0.968000   
540.500000	0.893000   
541.000000	1.073000   
541.500000	1.371000   
542.000000	1.058000   
542.500000	1.121000   
543.000000	1.168000   
543.500000	1.207000   
544.000000	1.377000   
544.500000	0.975000   
545.000000	0.962000   
545.500000	1.141000   
546.000000	1.176000   
546.500000	1.131000   
547.000000	1.090000   
547.500000	1.114000   
548.000000	1.065000   
548.500000	0.840000   

