PE FL                   SPECTRUM    ASCII       PEDS        1.60        
  -1
0124DI~3.SP
19/01/24
10:30:08.00
19/01/24
10:30:08.00


548.500000
1









LS45
350.00
10.00
10.00
SCAN
1
16
100
100
0
600
0
1
0
1
7
ON
435 365 
0 0 0
#HDR
-1
-1
#GR
NM
INT 
0.00002384185791015625
0.0
230.000000
0.500000
638
8
505.377000
0.091000
#DATA
230.000000	0.119000   
230.500000	0.178000   
231.000000	0.278000   
231.500000	0.124000   
232.000000	0.126000   
232.500000	0.130000   
233.000000	0.182000   
233.500000	0.116000   
234.000000	0.119000   
234.500000	0.174000   
235.000000	0.134000   
235.500000	0.104000   
236.000000	0.123000   
236.500000	0.144000   
237.000000	0.137000   
237.500000	0.126000   
238.000000	0.119000   
238.500000	0.130000   
239.000000	0.091000   
239.500000	0.158000   
240.000000	0.162000   
240.500000	0.143000   
241.000000	0.138000   
241.500000	0.141000   
242.000000	0.157000   
242.500000	0.140000   
243.000000	0.128000   
243.500000	0.152000   
244.000000	0.140000   
244.500000	0.131000   
245.000000	0.151000   
245.500000	0.176000   
246.000000	0.272000   
246.500000	0.191000   
247.000000	0.200000   
247.500000	0.128000   
248.000000	0.144000   
248.500000	0.206000   
249.000000	0.185000   
249.500000	0.124000   
250.000000	0.137000   
250.500000	0.174000   
251.000000	0.278000   
251.500000	0.209000   
252.000000	0.119000   
252.500000	0.170000   
253.000000	0.118000   
253.500000	0.210000   
254.000000	0.190000   
254.500000	0.179000   
255.000000	0.236000   
255.500000	0.165000   
256.000000	0.179000   
256.500000	0.226000   
257.000000	0.255000   
257.500000	0.163000   
258.000000	0.233000   
258.500000	0.143000   
259.000000	0.161000   
259.500000	0.208000   
260.000000	0.176000   
260.500000	0.244000   
261.000000	0.318000   
261.500000	0.174000   
262.000000	0.171000   
262.500000	0.275000   
263.000000	0.206000   
263.500000	0.241000   
264.000000	0.182000   
264.500000	0.266000   
265.000000	0.210000   
265.500000	0.233000   
266.000000	0.202000   
266.500000	0.171000   
267.000000	0.265000   
267.500000	0.275000   
268.000000	0.331000   
268.500000	0.298000   
269.000000	0.202000   
269.500000	0.237000   
270.000000	0.183000   
270.500000	0.254000   
271.000000	0.256000   
271.500000	0.221000   
272.000000	0.228000   
272.500000	0.251000   
273.000000	0.223000   
273.500000	0.243000   
274.000000	0.242000   
274.500000	0.266000   
275.000000	0.359000   
275.500000	0.299000   
276.000000	0.335000   
276.500000	0.315000   
277.000000	0.225000   
277.500000	0.211000   
278.000000	0.304000   
278.500000	0.268000   
279.000000	0.295000   
279.500000	0.293000   
280.000000	0.322000   
280.500000	0.266000   
281.000000	0.278000   
281.500000	0.280000   
282.000000	0.333000   
282.500000	0.308000   
283.000000	0.356000   
283.500000	0.282000   
284.000000	0.351000   
284.500000	0.325000   
285.000000	0.325000   
285.500000	0.394000   
286.000000	0.281000   
286.500000	0.342000   
287.000000	0.336000   
287.500000	0.484000   
288.000000	0.453000   
288.500000	0.470000   
289.000000	0.354000   
289.500000	0.415000   
290.000000	0.356000   
290.500000	0.361000   
291.000000	0.299000   
291.500000	0.344000   
292.000000	0.394000   
292.500000	0.431000   
293.000000	0.420000   
293.500000	0.351000   
294.000000	0.421000   
294.500000	0.476000   
295.000000	0.474000   
295.500000	0.570000   
296.000000	0.528000   
296.500000	0.697000   
297.000000	0.525000   
297.500000	0.521000   
298.000000	0.544000   
298.500000	0.534000   
299.000000	0.515000   
299.500000	0.609000   
300.000000	0.717000   
300.500000	0.680000   
301.000000	0.733000   
301.500000	0.783000   
302.000000	0.681000   
302.500000	0.711000   
303.000000	0.667000   
303.500000	0.431000   
304.000000	0.590000   
304.500000	0.892000   
305.000000	0.836000   
305.500000	0.869000   
306.000000	0.812999   
306.500000	0.770000   
307.000000	0.669000   
307.500000	0.742000   
308.000000	0.829000   
308.500000	0.885000   
309.000000	0.894000   
309.500000	0.984000   
310.000000	1.043000   
310.500000	1.110000   
311.000000	0.901000   
311.500000	0.908000   
312.000000	1.171000   
312.500000	1.194000   
313.000000	1.137000   
313.500000	1.104000   
314.000000	1.312000   
314.500000	1.374000   
315.000000	1.368000   
315.500000	1.418000   
316.000000	1.366000   
316.500000	1.181000   
317.000000	1.353000   
317.500000	1.481000   
318.000000	1.444000   
318.500000	1.482000   
319.000000	1.536000   
319.500000	1.452000   
320.000000	1.610000   
320.500000	1.762000   
321.000000	1.836000   
321.500000	1.789000   
322.000000	1.893000   
322.500000	1.966000   
323.000000	1.922000   
323.500000	2.089000   
324.000000	2.086000   
324.500000	2.242000   
325.000000	2.281000   
325.500000	2.491000   
326.000000	2.729000   
326.500000	2.724000   
327.000000	3.411000   
327.500000	3.884000   
328.000000	4.315000   
328.500000	5.544000   
329.000000	7.322000   
329.500000	9.101000   
330.000000	12.496000  
330.500000	15.022000  
331.000000	18.670000  
331.500000	24.122000  
332.000000	29.366000  
332.500000	37.094000  
333.000000	45.937000  
333.500000	54.614000  
334.000000	65.696000  
334.500000	78.384000  
335.000000	90.962000  
335.500000	108.281000 
336.000000	119.659000 
336.500000	140.429000 
337.000000	156.197000 
337.500000	185.186000 
338.000000	202.585000 
338.500000	228.281000 
339.000000	247.897000 
339.500000	275.466000 
340.000000	297.493000 
340.500000	321.277000 
341.000000	345.849000 
341.500000	364.652000 
342.000000	391.455000 
342.500000	409.443000 
343.000000	428.562000 
343.500000	443.305000 
344.000000	459.172000 
344.500000	472.992000 
345.000000	485.253000 
345.500000	489.266000 
346.000000	495.852000 
346.500000	500.701000 
347.000000	505.377000 
347.500000	501.117000 
348.000000	491.972000 
348.500000	481.967000 
349.000000	469.141000 
349.500000	456.881000 
350.000000	434.950000 
350.500000	422.470000 
351.000000	393.933000 
351.500000	369.932000 
352.000000	350.732000 
352.500000	327.025000 
353.000000	304.545000 
353.500000	278.765000 
354.000000	253.998000 
354.500000	228.674000 
355.000000	202.865000 
355.500000	181.299000 
356.000000	159.606000 
356.500000	140.633000 
357.000000	126.046000 
357.500000	107.604000 
358.000000	95.702000  
358.500000	79.517000  
359.000000	67.843999  
359.500000	56.641000  
360.000000	48.521000  
360.500000	40.743000  
361.000000	34.479000  
361.500000	27.783000  
362.000000	23.133000  
362.500000	17.866000  
363.000000	14.893000  
363.500000	12.803000  
364.000000	10.972000  
364.500000	8.925000   
365.000000	7.666000   
365.500000	6.715000   
366.000000	6.254000   
366.500000	5.912000   
367.000000	5.723000   
367.500000	5.077000   
368.000000	5.146000   
368.500000	5.101000   
369.000000	5.228000   
369.500000	4.782000   
370.000000	4.614000   
370.500000	4.742000   
371.000000	5.029000   
371.500000	4.986000   
372.000000	4.727000   
372.500000	5.039000   
373.000000	4.968000   
373.500000	5.551000   
374.000000	5.758000   
374.500000	5.729000   
375.000000	6.779000   
375.500000	7.320000   
376.000000	7.663000   
376.500000	8.845000   
377.000000	9.391000   
377.500000	10.209000  
378.000000	11.732000  
378.500000	12.833000  
379.000000	14.306000  
379.500000	16.005000  
380.000000	17.053000  
380.500000	17.938000  
381.000000	19.982000  
381.500000	22.057000  
382.000000	23.341000  
382.500000	26.129000  
383.000000	27.235000  
383.500000	29.132000  
384.000000	31.810000  
384.500000	34.646000  
385.000000	37.165000  
385.500000	41.176000  
386.000000	42.606000  
386.500000	44.092000  
387.000000	46.736000  
387.500000	49.286000  
388.000000	51.693000  
388.500000	53.085000  
389.000000	55.748000  
389.500000	56.756000  
390.000000	59.205000  
390.500000	61.006000  
391.000000	59.581000  
391.500000	62.544000  
392.000000	64.133000  
392.500000	63.540000  
393.000000	63.757000  
393.500000	64.128000  
394.000000	64.549000  
394.500000	63.969000  
395.000000	63.662000  
395.500000	60.998000  
396.000000	60.687000  
396.500000	58.316000  
397.000000	57.206000  
397.500000	55.366000  
398.000000	53.621000  
398.500000	51.206000  
399.000000	48.336000  
399.500000	45.382000  
400.000000	43.544000  
400.500000	42.205000  
401.000000	39.724000  
401.500000	36.538000  
402.000000	35.400000  
402.500000	32.957000  
403.000000	29.624000  
403.500000	27.418000  
404.000000	25.527000  
404.500000	23.755000  
405.000000	21.805000  
405.500000	19.600000  
406.000000	16.993000  
406.500000	15.764000  
407.000000	13.794000  
407.500000	12.950000  
408.000000	12.075000  
408.500000	10.401000  
409.000000	8.971000   
409.500000	8.464000   
410.000000	6.858000   
410.500000	5.940000   
411.000000	5.447000   
411.500000	5.072000   
412.000000	4.446000   
412.500000	3.633000   
413.000000	3.476000   
413.500000	3.102000   
414.000000	2.680000   
414.500000	2.784000   
415.000000	2.458000   
415.500000	2.142000   
416.000000	1.920000   
416.500000	1.955000   
417.000000	1.695000   
417.500000	1.752000   
418.000000	1.684000   
418.500000	1.470000   
419.000000	1.412000   
419.500000	1.324000   
420.000000	1.522000   
420.500000	1.521000   
421.000000	1.507000   
421.500000	1.214000   
422.000000	1.393000   
422.500000	1.262000   
423.000000	1.128000   
423.500000	1.200000   
424.000000	1.142000   
424.500000	1.220000   
425.000000	1.267000   
425.500000	1.037000   
426.000000	0.794000   
426.500000	0.981000   
427.000000	1.085000   
427.500000	1.218000   
428.000000	0.979000   
428.500000	0.937000   
429.000000	0.964000   
429.500000	1.050000   
430.000000	0.994000   
430.500000	0.904000   
431.000000	1.096000   
431.500000	1.139000   
432.000000	0.941999   
432.500000	1.189000   
433.000000	0.925000   
433.500000	0.893000   
434.000000	1.056000   
434.500000	0.979000   
435.000000	0.981000   
435.500000	0.814999   
436.000000	0.859000   
436.500000	0.927000   
437.000000	0.934000   
437.500000	0.950000   
438.000000	0.828000   
438.500000	0.875000   
439.000000	0.927000   
439.500000	0.930000   
440.000000	1.013000   
440.500000	0.930000   
441.000000	0.759000   
441.500000	0.783000   
442.000000	1.049000   
442.500000	0.911000   
443.000000	0.876000   
443.500000	0.888000   
444.000000	1.027000   
444.500000	0.851000   
445.000000	0.940999   
445.500000	0.863000   
446.000000	0.918000   
446.500000	1.007000   
447.000000	0.970000   
447.500000	0.831000   
448.000000	0.840000   
448.500000	0.759000   
449.000000	1.120000   
449.500000	1.126000   
450.000000	0.983000   
450.500000	1.046000   
451.000000	0.982000   
451.500000	0.823000   
452.000000	0.895000   
452.500000	0.864000   
453.000000	0.857000   
453.500000	0.963000   
454.000000	0.937000   
454.500000	0.902000   
455.000000	0.882000   
455.500000	0.990000   
456.000000	1.039000   
456.500000	0.918000   
457.000000	0.881000   
457.500000	0.888000   
458.000000	0.983000   
458.500000	1.130000   
459.000000	1.053000   
459.500000	0.781000   
460.000000	0.841000   
460.500000	0.929000   
461.000000	0.916000   
461.500000	0.895000   
462.000000	0.863000   
462.500000	0.779000   
463.000000	0.926000   
463.500000	0.873000   
464.000000	1.066000   
464.500000	0.992000   
465.000000	0.897000   
465.500000	0.812000   
466.000000	0.735000   
466.500000	0.710000   
467.000000	0.801000   
467.500000	0.962000   
468.000000	0.844000   
468.500000	0.761000   
469.000000	0.811000   
469.500000	0.678000   
470.000000	0.679000   
470.500000	0.765000   
471.000000	0.779000   
471.500000	0.811000   
472.000000	0.771000   
472.500000	0.702000   
473.000000	0.675000   
473.500000	0.621000   
474.000000	0.640000   
474.500000	0.670000   
475.000000	0.635000   
475.500000	0.590000   
476.000000	0.635000   
476.500000	0.653000   
477.000000	0.712000   
477.500000	0.700000   
478.000000	0.829000   
478.500000	0.833000   
479.000000	0.750000   
479.500000	0.757000   
480.000000	0.675000   
480.500000	0.812000   
481.000000	0.605000   
481.500000	0.555000   
482.000000	0.625000   
482.500000	0.581000   
483.000000	0.772000   
483.500000	0.710000   
484.000000	0.669000   
484.500000	0.671000   
485.000000	0.739000   
485.500000	0.653000   
486.000000	0.742000   
486.500000	0.652000   
487.000000	0.699000   
487.500000	0.705000   
488.000000	0.905000   
488.500000	0.797000   
489.000000	0.669000   
489.500000	0.667000   
490.000000	0.669000   
490.500000	0.585000   
491.000000	0.701000   
491.500000	0.651000   
492.000000	0.789000   
492.500000	0.837000   
493.000000	0.651000   
493.500000	0.647000   
494.000000	0.795000   
494.500000	0.627000   
495.000000	0.664000   
495.500000	0.641000   
496.000000	0.622000   
496.500000	0.629000   
497.000000	0.674000   
497.500000	0.751000   
498.000000	0.744000   
498.500000	0.658000   
499.000000	0.631000   
499.500000	0.626000   
500.000000	0.540000   
500.500000	0.602000   
501.000000	0.627000   
501.500000	0.614000   
502.000000	0.689999   
502.500000	0.587000   
503.000000	0.505000   
503.500000	0.615000   
504.000000	0.710000   
504.500000	0.697000   
505.000000	0.538000   
505.500000	0.591000   
506.000000	0.432000   
506.500000	0.450000   
507.000000	0.526000   
507.500000	0.582000   
508.000000	0.455000   
508.500000	0.562999   
509.000000	0.515000   
509.500000	0.512000   
510.000000	0.483000   
510.500000	0.398000   
511.000000	0.462000   
511.500000	0.652000   
512.000000	0.591000   
512.500000	0.613000   
513.000000	0.447000   
513.500000	0.522000   
514.000000	0.519000   
514.500000	0.528000   
515.000000	0.613000   
515.500000	0.595000   
516.000000	0.479000   
516.500000	0.609000   
517.000000	0.698000   
517.500000	0.512000   
518.000000	0.600000   
518.500000	0.570000   
519.000000	0.685000   
519.500000	0.664000   
520.000000	0.558000   
520.500000	0.537000   
521.000000	0.494000   
521.500000	0.554000   
522.000000	0.481000   
522.500000	0.563999   
523.000000	0.544000   
523.500000	0.447000   
524.000000	0.556000   
524.500000	0.628000   
525.000000	0.527000   
525.500000	0.433000   
526.000000	0.546000   
526.500000	0.507000   
527.000000	0.503000   
527.500000	0.650000   
528.000000	0.457000   
528.500000	0.553000   
529.000000	0.502000   
529.500000	0.520000   
530.000000	0.571000   
530.500000	0.461000   
531.000000	0.390000   
531.500000	0.505000   
532.000000	0.487000   
532.500000	0.623000   
533.000000	0.494000   
533.500000	0.419000   
534.000000	0.441000   
534.500000	0.451000   
535.000000	0.404000   
535.500000	0.432000   
536.000000	0.565999   
536.500000	0.502000   
537.000000	0.416000   
537.500000	0.465000   
538.000000	0.491000   
538.500000	0.462000   
539.000000	0.407000   
539.500000	0.370000   
540.000000	0.491000   
540.500000	0.547000   
541.000000	0.532000   
541.500000	0.460000   
542.000000	0.342000   
542.500000	0.388000   
543.000000	0.397000   
543.500000	0.384000   
544.000000	0.336000   
544.500000	0.436000   
545.000000	0.544000   
545.500000	0.489000   
546.000000	0.347000   
546.500000	0.335000   
547.000000	0.411000   
547.500000	0.309000   
548.000000	0.400000   
548.500000	0.384000   

