PE FL                   SPECTRUM    ASCII       PEDS        1.60        
  -1
01700E~1.SP
19/01/24
10:44:27.00
19/01/24
10:44:27.00


548.500000
1









LS45
445.00
10.00
10.00
SCAN
1
16
100
100
0
600
0
1
0
1
7
ON
435 365 
0 0 0
#HDR
-1
-1
#GR
NM
INT 
0.00002384185791015625
0.0
230.000000
0.500000
638
8
242.877000
0.014000
#DATA
230.000000	0.062000   
230.500000	0.109000   
231.000000	0.116000   
231.500000	0.094000   
232.000000	0.115000   
232.500000	0.168000   
233.000000	0.221000   
233.500000	0.122000   
234.000000	0.164000   
234.500000	0.186000   
235.000000	0.153000   
235.500000	0.184000   
236.000000	0.218000   
236.500000	0.247000   
237.000000	0.213000   
237.500000	0.186000   
238.000000	0.177000   
238.500000	0.187000   
239.000000	0.144000   
239.500000	0.196000   
240.000000	0.143000   
240.500000	0.144000   
241.000000	0.174000   
241.500000	0.201000   
242.000000	0.177000   
242.500000	0.155000   
243.000000	0.136000   
243.500000	0.085000   
244.000000	0.104000   
244.500000	0.095000   
245.000000	0.102000   
245.500000	0.099000   
246.000000	0.066000   
246.500000	0.076000   
247.000000	0.091000   
247.500000	0.133000   
248.000000	0.095000   
248.500000	0.054000   
249.000000	0.119000   
249.500000	0.045000   
250.000000	0.097000   
250.500000	0.059000   
251.000000	0.033000   
251.500000	0.041000   
252.000000	0.042000   
252.500000	0.035000   
253.000000	0.052000   
253.500000	0.058000   
254.000000	0.060000   
254.500000	0.057000   
255.000000	0.062000   
255.500000	0.045000   
256.000000	0.034000   
256.500000	0.037000   
257.000000	0.059000   
257.500000	0.047000   
258.000000	0.053000   
258.500000	0.038000   
259.000000	0.028000   
259.500000	0.081000   
260.000000	0.067000   
260.500000	0.080000   
261.000000	0.037000   
261.500000	0.034000   
262.000000	0.050000   
262.500000	0.091000   
263.000000	0.073000   
263.500000	0.014000   
264.000000	0.062000   
264.500000	0.049000   
265.000000	0.040000   
265.500000	0.080000   
266.000000	0.074000   
266.500000	0.057000   
267.000000	0.092000   
267.500000	0.086999   
268.000000	0.068000   
268.500000	0.064000   
269.000000	0.075000   
269.500000	0.077000   
270.000000	0.074000   
270.500000	0.040000   
271.000000	0.076000   
271.500000	0.085999   
272.000000	0.105000   
272.500000	0.085999   
273.000000	0.079000   
273.500000	0.055000   
274.000000	0.069000   
274.500000	0.042000   
275.000000	0.079000   
275.500000	0.084000   
276.000000	0.121000   
276.500000	0.050000   
277.000000	0.061000   
277.500000	0.031000   
278.000000	0.057000   
278.500000	0.092000   
279.000000	0.070000   
279.500000	0.114000   
280.000000	0.081000   
280.500000	0.099000   
281.000000	0.076000   
281.500000	0.070000   
282.000000	0.051000   
282.500000	0.068000   
283.000000	0.086999   
283.500000	0.085000   
284.000000	0.079000   
284.500000	0.057000   
285.000000	0.079000   
285.500000	0.079000   
286.000000	0.084000   
286.500000	0.057000   
287.000000	0.056000   
287.500000	0.049000   
288.000000	0.106000   
288.500000	0.116000   
289.000000	0.085000   
289.500000	0.061000   
290.000000	0.112000   
290.500000	0.115000   
291.000000	0.098000   
291.500000	0.112000   
292.000000	0.093000   
292.500000	0.100000   
293.000000	0.083000   
293.500000	0.080000   
294.000000	0.083000   
294.500000	0.135000   
295.000000	0.103000   
295.500000	0.087999   
296.000000	0.093000   
296.500000	0.065000   
297.000000	0.099000   
297.500000	0.093000   
298.000000	0.155000   
298.500000	0.144000   
299.000000	0.132000   
299.500000	0.050000   
300.000000	0.094000   
300.500000	0.076000   
301.000000	0.168000   
301.500000	0.101000   
302.000000	0.138000   
302.500000	0.097000   
303.000000	0.119000   
303.500000	0.157000   
304.000000	0.153000   
304.500000	0.143000   
305.000000	0.173000   
305.500000	0.155000   
306.000000	0.139000   
306.500000	0.128000   
307.000000	0.149000   
307.500000	0.152000   
308.000000	0.108000   
308.500000	0.163000   
309.000000	0.152000   
309.500000	0.129000   
310.000000	0.185000   
310.500000	0.142000   
311.000000	0.181000   
311.500000	0.136000   
312.000000	0.135000   
312.500000	0.152000   
313.000000	0.085999   
313.500000	0.097000   
314.000000	0.172000   
314.500000	0.176000   
315.000000	0.185000   
315.500000	0.177000   
316.000000	0.179000   
316.500000	0.148000   
317.000000	0.180000   
317.500000	0.176000   
318.000000	0.121000   
318.500000	0.122000   
319.000000	0.153000   
319.500000	0.176000   
320.000000	0.128000   
320.500000	0.167000   
321.000000	0.158000   
321.500000	0.206000   
322.000000	0.158000   
322.500000	0.150000   
323.000000	0.121000   
323.500000	0.206000   
324.000000	0.265000   
324.500000	0.236000   
325.000000	0.211000   
325.500000	0.163000   
326.000000	0.188000   
326.500000	0.224000   
327.000000	0.212000   
327.500000	0.198000   
328.000000	0.179000   
328.500000	0.210000   
329.000000	0.225000   
329.500000	0.152000   
330.000000	0.147000   
330.500000	0.235000   
331.000000	0.247000   
331.500000	0.168000   
332.000000	0.214000   
332.500000	0.194000   
333.000000	0.199000   
333.500000	0.168000   
334.000000	0.198000   
334.500000	0.185000   
335.000000	0.171000   
335.500000	0.176000   
336.000000	0.166000   
336.500000	0.177000   
337.000000	0.197000   
337.500000	0.227000   
338.000000	0.257000   
338.500000	0.159000   
339.000000	0.219000   
339.500000	0.216000   
340.000000	0.197000   
340.500000	0.173000   
341.000000	0.178000   
341.500000	0.192000   
342.000000	0.207000   
342.500000	0.207000   
343.000000	0.159000   
343.500000	0.209000   
344.000000	0.240000   
344.500000	0.305000   
345.000000	0.250000   
345.500000	0.172000   
346.000000	0.207000   
346.500000	0.205000   
347.000000	0.202000   
347.500000	0.199000   
348.000000	0.204000   
348.500000	0.251000   
349.000000	0.222000   
349.500000	0.153000   
350.000000	0.149000   
350.500000	0.178000   
351.000000	0.238000   
351.500000	0.180000   
352.000000	0.218000   
352.500000	0.285000   
353.000000	0.164000   
353.500000	0.145000   
354.000000	0.206000   
354.500000	0.210000   
355.000000	0.201000   
355.500000	0.226000   
356.000000	0.178000   
356.500000	0.230000   
357.000000	0.259000   
357.500000	0.236000   
358.000000	0.156000   
358.500000	0.233000   
359.000000	0.271000   
359.500000	0.285000   
360.000000	0.209000   
360.500000	0.227000   
361.000000	0.235000   
361.500000	0.162000   
362.000000	0.143000   
362.500000	0.211000   
363.000000	0.157000   
363.500000	0.169000   
364.000000	0.187000   
364.500000	0.195000   
365.000000	0.180000   
365.500000	0.197000   
366.000000	0.174000   
366.500000	0.226000   
367.000000	0.106000   
367.500000	0.123000   
368.000000	0.115000   
368.500000	0.151000   
369.000000	0.131000   
369.500000	0.164000   
370.000000	0.152000   
370.500000	0.193000   
371.000000	0.218000   
371.500000	0.152000   
372.000000	0.215000   
372.500000	0.212000   
373.000000	0.252000   
373.500000	0.247000   
374.000000	0.173000   
374.500000	0.262000   
375.000000	0.365000   
375.500000	0.227000   
376.000000	0.173000   
376.500000	0.156000   
377.000000	0.177000   
377.500000	0.229000   
378.000000	0.270000   
378.500000	0.253000   
379.000000	0.166000   
379.500000	0.197000   
380.000000	0.251000   
380.500000	0.268000   
381.000000	0.220000   
381.500000	0.314000   
382.000000	0.247000   
382.500000	0.248000   
383.000000	0.267000   
383.500000	0.304000   
384.000000	0.183000   
384.500000	0.249000   
385.000000	0.241000   
385.500000	0.283000   
386.000000	0.247000   
386.500000	0.268000   
387.000000	0.212000   
387.500000	0.285000   
388.000000	0.321000   
388.500000	0.291000   
389.000000	0.242000   
389.500000	0.291000   
390.000000	0.274000   
390.500000	0.291000   
391.000000	0.291000   
391.500000	0.277000   
392.000000	0.339000   
392.500000	0.321000   
393.000000	0.270000   
393.500000	0.252000   
394.000000	0.280000   
394.500000	0.233000   
395.000000	0.249000   
395.500000	0.395000   
396.000000	0.282000   
396.500000	0.264000   
397.000000	0.395000   
397.500000	0.419000   
398.000000	0.304000   
398.500000	0.333000   
399.000000	0.372000   
399.500000	0.388000   
400.000000	0.259000   
400.500000	0.414000   
401.000000	0.341000   
401.500000	0.365000   
402.000000	0.349000   
402.500000	0.428000   
403.000000	0.406000   
403.500000	0.396000   
404.000000	0.424000   
404.500000	0.446000   
405.000000	0.478000   
405.500000	0.466000   
406.000000	0.482000   
406.500000	0.422000   
407.000000	0.494000   
407.500000	0.483000   
408.000000	0.581000   
408.500000	0.496000   
409.000000	0.477000   
409.500000	0.541000   
410.000000	0.631000   
410.500000	0.561000   
411.000000	0.594000   
411.500000	0.567999   
412.000000	0.533000   
412.500000	0.529000   
413.000000	0.528000   
413.500000	0.679000   
414.000000	0.687999   
414.500000	0.737000   
415.000000	0.788000   
415.500000	0.913000   
416.000000	0.761000   
416.500000	0.662000   
417.000000	0.711000   
417.500000	0.759000   
418.000000	0.774000   
418.500000	0.857000   
419.000000	0.845000   
419.500000	0.784000   
420.000000	0.907000   
420.500000	0.980000   
421.000000	1.006000   
421.500000	1.261000   
422.000000	1.553000   
422.500000	1.624000   
423.000000	2.186000   
423.500000	2.982000   
424.000000	3.800000   
424.500000	5.121000   
425.000000	6.424000   
425.500000	8.163000   
426.000000	10.663000  
426.500000	13.404000  
427.000000	16.999000  
427.500000	20.728000  
428.000000	25.512000  
428.500000	30.675000  
429.000000	36.886000  
429.500000	43.462000  
430.000000	51.934000  
430.500000	57.053000  
431.000000	68.001000  
431.500000	77.488000  
432.000000	88.191000  
432.500000	97.090000  
433.000000	110.031000 
433.500000	121.062000 
434.000000	131.796000 
434.500000	143.895000 
435.000000	157.623000 
435.500000	165.468000 
436.000000	178.579000 
436.500000	188.170000 
437.000000	198.582000 
437.500000	206.596000 
438.000000	218.399000 
438.500000	222.495000 
439.000000	230.961000 
439.500000	237.798000 
440.000000	239.203000 
440.500000	241.721000 
441.000000	242.877000 
441.500000	241.957000 
442.000000	236.652000 
442.500000	233.193000 
443.000000	229.190000 
443.500000	222.194000 
444.000000	214.053000 
444.500000	205.768000 
445.000000	198.159000 
445.500000	184.777000 
446.000000	173.802000 
446.500000	160.230000 
447.000000	149.123000 
447.500000	135.600000 
448.000000	123.865000 
448.500000	111.397000 
449.000000	101.881000 
449.500000	89.768000  
450.000000	80.398000  
450.500000	70.057000  
451.000000	62.887000  
451.500000	53.422000  
452.000000	47.615000  
452.500000	39.584000  
453.000000	33.343000  
453.500000	26.994000  
454.000000	23.410000  
454.500000	19.308000  
455.000000	15.563000  
455.500000	12.692000  
456.000000	9.933000   
456.500000	7.579000   
457.000000	6.789000   
457.500000	5.247000   
458.000000	3.948000   
458.500000	3.409000   
459.000000	2.949000   
459.500000	2.494000   
460.000000	2.052000   
460.500000	1.913000   
461.000000	1.811000   
461.500000	1.910000   
462.000000	1.853000   
462.500000	1.616000   
463.000000	1.663000   
463.500000	1.821000   
464.000000	1.770000   
464.500000	1.634000   
465.000000	1.762000   
465.500000	1.715000   
466.000000	1.641000   
466.500000	1.639000   
467.000000	1.790000   
467.500000	1.784000   
468.000000	2.034000   
468.500000	2.105000   
469.000000	2.077000   
469.500000	2.302000   
470.000000	2.726000   
470.500000	2.446000   
471.000000	2.718000   
471.500000	2.583000   
472.000000	2.444000   
472.500000	2.558000   
473.000000	2.662000   
473.500000	3.050000   
474.000000	2.912000   
474.500000	3.041000   
475.000000	3.111000   
475.500000	3.058000   
476.000000	3.040000   
476.500000	3.233000   
477.000000	3.224000   
477.500000	3.395000   
478.000000	3.264000   
478.500000	3.149000   
479.000000	3.235000   
479.500000	3.140000   
480.000000	2.808000   
480.500000	2.958000   
481.000000	2.708000   
481.500000	3.059000   
482.000000	2.898000   
482.500000	2.768000   
483.000000	2.702000   
483.500000	2.634000   
484.000000	2.450000   
484.500000	2.203000   
485.000000	2.349000   
485.500000	2.266000   
486.000000	1.950000   
486.500000	1.870000   
487.000000	1.628000   
487.500000	1.570000   
488.000000	1.424000   
488.500000	1.337000   
489.000000	1.432000   
489.500000	1.360000   
490.000000	1.272000   
490.500000	1.037000   
491.000000	1.046000   
491.500000	0.928000   
492.000000	0.838000   
492.500000	0.760000   
493.000000	0.824000   
493.500000	0.753000   
494.000000	0.725000   
494.500000	0.810000   
495.000000	0.697000   
495.500000	0.687999   
496.000000	0.936000   
496.500000	0.793000   
497.000000	0.758000   
497.500000	0.804000   
498.000000	0.709000   
498.500000	0.690999   
499.000000	0.792000   
499.500000	0.953000   
500.000000	0.919000   
500.500000	0.928000   
501.000000	0.994000   
501.500000	1.171000   
502.000000	1.393000   
502.500000	1.346000   
503.000000	1.389000   
503.500000	1.502000   
504.000000	1.663000   
504.500000	1.765000   
505.000000	2.019000   
505.500000	2.033000   
506.000000	2.438000   
506.500000	2.479000   
507.000000	2.772000   
507.500000	2.954000   
508.000000	3.271000   
508.500000	3.290000   
509.000000	3.594000   
509.500000	3.979000   
510.000000	4.212000   
510.500000	4.384000   
511.000000	4.392000   
511.500000	4.756000   
512.000000	4.905000   
512.500000	5.089000   
513.000000	5.479000   
513.500000	5.399000   
514.000000	5.980000   
514.500000	5.939000   
515.000000	5.795000   
515.500000	6.212000   
516.000000	6.507000   
516.500000	6.630000   
517.000000	6.470000   
517.500000	6.401000   
518.000000	6.753000   
518.500000	6.617000   
519.000000	6.532000   
519.500000	6.845000   
520.000000	6.727000   
520.500000	6.860000   
521.000000	7.061000   
521.500000	6.605000   
522.000000	6.633000   
522.500000	6.040000   
523.000000	5.786000   
523.500000	6.269000   
524.000000	5.794000   
524.500000	5.430000   
525.000000	5.063000   
525.500000	5.515000   
526.000000	4.818000   
526.500000	4.621000   
527.000000	4.543000   
527.500000	4.365000   
528.000000	4.032000   
528.500000	3.805000   
529.000000	3.335000   
529.500000	3.125000   
530.000000	2.920000   
530.500000	2.677000   
531.000000	2.667000   
531.500000	2.396000   
532.000000	2.332000   
532.500000	1.961000   
533.000000	1.969000   
533.500000	1.753000   
534.000000	1.577000   
534.500000	1.269000   
535.000000	1.318000   
535.500000	1.187000   
536.000000	0.933000   
536.500000	0.977000   
537.000000	0.885000   
537.500000	0.876000   
538.000000	0.742000   
538.500000	0.585000   
539.000000	0.515000   
539.500000	0.540000   
540.000000	0.472000   
540.500000	0.379000   
541.000000	0.378000   
541.500000	0.313000   
542.000000	0.326000   
542.500000	0.300000   
543.000000	0.322000   
543.500000	0.276000   
544.000000	0.329000   
544.500000	0.238000   
545.000000	0.240000   
545.500000	0.229000   
546.000000	0.186000   
546.500000	0.183000   
547.000000	0.180000   
547.500000	0.175000   
548.000000	0.248000   
548.500000	0.185000   

