PE FL                   SPECTRUM    ASCII       PEDS        1.60        
  -1
0168FD~1.SP
19/01/24
10:26:22.00
19/01/24
10:26:22.00


548.500000
1









LS45
325.00
10.00
10.00
SCAN
1
16
100
100
0
600
0
1
0
1
7
ON
435 365 
0 0 0
#HDR
-1
-1
#GR
NM
INT 
0.00002384185791015625
0.0
230.000000
0.500000
638
8
522.738000
0.135000
#DATA
230.000000	0.193000   
230.500000	0.328000   
231.000000	0.232000   
231.500000	0.206000   
232.000000	0.166000   
232.500000	0.177000   
233.000000	0.235000   
233.500000	0.287000   
234.000000	0.308000   
234.500000	0.188000   
235.000000	0.163000   
235.500000	0.135000   
236.000000	0.191000   
236.500000	0.261000   
237.000000	0.166000   
237.500000	0.202000   
238.000000	0.299000   
238.500000	0.211000   
239.000000	0.186000   
239.500000	0.262000   
240.000000	0.228000   
240.500000	0.200000   
241.000000	0.241000   
241.500000	0.224000   
242.000000	0.220000   
242.500000	0.319000   
243.000000	0.232000   
243.500000	0.268000   
244.000000	0.246000   
244.500000	0.178000   
245.000000	0.226000   
245.500000	0.182000   
246.000000	0.281000   
246.500000	0.353000   
247.000000	0.280000   
247.500000	0.254000   
248.000000	0.253000   
248.500000	0.308000   
249.000000	0.360000   
249.500000	0.377000   
250.000000	0.286000   
250.500000	0.327000   
251.000000	0.223000   
251.500000	0.224000   
252.000000	0.365000   
252.500000	0.318000   
253.000000	0.346000   
253.500000	0.225000   
254.000000	0.350000   
254.500000	0.305000   
255.000000	0.425000   
255.500000	0.387000   
256.000000	0.289000   
256.500000	0.493000   
257.000000	0.389000   
257.500000	0.357000   
258.000000	0.335000   
258.500000	0.363000   
259.000000	0.395000   
259.500000	0.430000   
260.000000	0.310000   
260.500000	0.315000   
261.000000	0.399000   
261.500000	0.422000   
262.000000	0.358000   
262.500000	0.355000   
263.000000	0.293000   
263.500000	0.265000   
264.000000	0.453000   
264.500000	0.367000   
265.000000	0.416000   
265.500000	0.483000   
266.000000	0.491000   
266.500000	0.386000   
267.000000	0.424000   
267.500000	0.470000   
268.000000	0.396000   
268.500000	0.435000   
269.000000	0.454000   
269.500000	0.494000   
270.000000	0.452000   
270.500000	0.576000   
271.000000	0.542000   
271.500000	0.539000   
272.000000	0.563999   
272.500000	0.536000   
273.000000	0.625000   
273.500000	0.633000   
274.000000	0.485000   
274.500000	0.633000   
275.000000	0.550000   
275.500000	0.624000   
276.000000	0.620000   
276.500000	0.603000   
277.000000	0.611000   
277.500000	0.587000   
278.000000	0.776000   
278.500000	0.702000   
279.000000	0.758000   
279.500000	0.753000   
280.000000	0.772000   
280.500000	0.831000   
281.000000	0.751000   
281.500000	0.735000   
282.000000	0.864000   
282.500000	0.723000   
283.000000	0.740000   
283.500000	0.721000   
284.000000	0.839000   
284.500000	0.979000   
285.000000	1.113000   
285.500000	0.778000   
286.000000	0.813999   
286.500000	1.081000   
287.000000	0.963000   
287.500000	1.014000   
288.000000	0.980000   
288.500000	1.171000   
289.000000	1.193000   
289.500000	1.131000   
290.000000	1.148000   
290.500000	1.320000   
291.000000	1.358000   
291.500000	1.289000   
292.000000	1.363000   
292.500000	1.338000   
293.000000	1.500000   
293.500000	1.480000   
294.000000	1.567000   
294.500000	1.665000   
295.000000	1.661000   
295.500000	1.595000   
296.000000	1.707000   
296.500000	1.864000   
297.000000	1.841000   
297.500000	1.796000   
298.000000	1.896000   
298.500000	2.192000   
299.000000	2.203000   
299.500000	2.160000   
300.000000	2.264000   
300.500000	2.278000   
301.000000	2.655000   
301.500000	2.712000   
302.000000	2.910000   
302.500000	3.443000   
303.000000	4.001000   
303.500000	5.201000   
304.000000	6.324000   
304.500000	7.304000   
305.000000	9.528000   
305.500000	11.958000  
306.000000	15.201000  
306.500000	19.136000  
307.000000	23.624000  
307.500000	29.631000  
308.000000	37.274000  
308.500000	46.154000  
309.000000	54.966000  
309.500000	67.634000  
310.000000	76.035000  
310.500000	94.002000  
311.000000	107.874000 
311.500000	124.315000 
312.000000	139.379000 
312.500000	159.571000 
313.000000	175.076000 
313.500000	198.894000 
314.000000	220.682000 
314.500000	250.796000 
315.000000	275.401000 
315.500000	306.450000 
316.000000	328.232000 
316.500000	349.943000 
317.000000	375.900000 
317.500000	399.180000 
318.000000	418.672000 
318.500000	441.181000 
319.000000	464.443000 
319.500000	473.943000 
320.000000	489.476000 
320.500000	504.887000 
321.000000	511.120000 
321.500000	517.684999 
322.000000	522.252000 
322.500000	522.738000 
323.000000	519.373000 
323.500000	513.759000 
324.000000	502.844000 
324.500000	489.242000 
325.000000	473.623000 
325.500000	458.901000 
326.000000	439.566000 
326.500000	423.737000 
327.000000	402.099000 
327.500000	376.412000 
328.000000	348.733000 
328.500000	324.734000 
329.000000	294.419000 
329.500000	272.590000 
330.000000	243.358000 
330.500000	216.606000 
331.000000	198.274000 
331.500000	174.778000 
332.000000	155.752000 
332.500000	132.008000 
333.000000	113.401000 
333.500000	98.891000  
334.000000	87.046000  
334.500000	73.614000  
335.000000	62.189000  
335.500000	51.613000  
336.000000	43.869000  
336.500000	34.671000  
337.000000	30.062000  
337.500000	23.681000  
338.000000	19.909000  
338.500000	16.182000  
339.000000	14.331000  
339.500000	12.203000  
340.000000	11.562000  
340.500000	10.208000  
341.000000	9.324999   
341.500000	8.956000   
342.000000	9.830000   
342.500000	9.295000   
343.000000	9.760000   
343.500000	10.909000  
344.000000	11.235000  
344.500000	12.169000  
345.000000	13.143000  
345.500000	14.237000  
346.000000	15.529000  
346.500000	17.487000  
347.000000	19.452000  
347.500000	20.522000  
348.000000	23.377000  
348.500000	26.983000  
349.000000	28.757000  
349.500000	31.053000  
350.000000	34.524000  
350.500000	37.346000  
351.000000	41.952000  
351.500000	44.954000  
352.000000	48.124000  
352.500000	50.893000  
353.000000	55.533000  
353.500000	59.669000  
354.000000	62.532000  
354.500000	68.187000  
355.000000	70.386000  
355.500000	75.477999  
356.000000	75.058000  
356.500000	80.483000  
357.000000	83.608000  
357.500000	85.589000  
358.000000	84.566000  
358.500000	88.244000  
359.000000	88.562000  
359.500000	88.898000  
360.000000	91.325000  
360.500000	91.804000  
361.000000	93.736000  
361.500000	91.247000  
362.000000	89.590000  
362.500000	89.912000  
363.000000	87.729000  
363.500000	85.752000  
364.000000	83.611999  
364.500000	81.729000  
365.000000	76.416000  
365.500000	75.447000  
366.000000	73.376000  
366.500000	69.870000  
367.000000	65.075999  
367.500000	63.046000  
368.000000	58.677000  
368.500000	55.354000  
369.000000	51.330000  
369.500000	48.521000  
370.000000	43.545000  
370.500000	39.651000  
371.000000	37.883000  
371.500000	34.647000  
372.000000	32.248000  
372.500000	28.423000  
373.000000	26.082000  
373.500000	23.598000  
374.000000	20.757000  
374.500000	18.315000  
375.000000	15.958000  
375.500000	15.142000  
376.000000	13.441000  
376.500000	11.491000  
377.000000	10.068000  
377.500000	9.538000   
378.000000	7.939000   
378.500000	7.260000   
379.000000	6.769000   
379.500000	5.443000   
380.000000	4.896000   
380.500000	4.193000   
381.000000	3.909000   
381.500000	3.602000   
382.000000	3.238000   
382.500000	2.894000   
383.000000	2.579000   
383.500000	2.521000   
384.000000	2.410000   
384.500000	2.159000   
385.000000	1.947000   
385.500000	1.917000   
386.000000	1.945000   
386.500000	1.818000   
387.000000	1.917000   
387.500000	1.991000   
388.000000	1.994000   
388.500000	1.842000   
389.000000	1.897000   
389.500000	1.761000   
390.000000	1.971000   
390.500000	1.568000   
391.000000	1.570000   
391.500000	1.637000   
392.000000	1.549000   
392.500000	1.480000   
393.000000	1.429000   
393.500000	1.624000   
394.000000	1.449000   
394.500000	1.513000   
395.000000	1.508000   
395.500000	1.466000   
396.000000	1.386000   
396.500000	1.463000   
397.000000	1.453000   
397.500000	1.582000   
398.000000	1.509000   
398.500000	1.249000   
399.000000	1.586000   
399.500000	1.376000   
400.000000	1.276000   
400.500000	1.274000   
401.000000	1.382000   
401.500000	1.432000   
402.000000	1.406000   
402.500000	1.401000   
403.000000	1.369000   
403.500000	1.319000   
404.000000	1.493000   
404.500000	1.170000   
405.000000	1.113000   
405.500000	1.415000   
406.000000	1.473000   
406.500000	1.452000   
407.000000	1.305000   
407.500000	1.327000   
408.000000	1.420000   
408.500000	1.409000   
409.000000	1.329000   
409.500000	1.435000   
410.000000	1.340000   
410.500000	1.469000   
411.000000	1.371000   
411.500000	1.454000   
412.000000	1.482000   
412.500000	1.619000   
413.000000	1.424000   
413.500000	1.403000   
414.000000	1.351000   
414.500000	1.295000   
415.000000	1.201000   
415.500000	1.238000   
416.000000	1.303000   
416.500000	1.275000   
417.000000	1.351000   
417.500000	1.386000   
418.000000	1.243000   
418.500000	1.405000   
419.000000	1.245000   
419.500000	1.389000   
420.000000	1.485000   
420.500000	1.308000   
421.000000	1.323000   
421.500000	1.370000   
422.000000	1.152000   
422.500000	1.152000   
423.000000	1.003000   
423.500000	0.968000   
424.000000	1.267000   
424.500000	1.187000   
425.000000	1.125000   
425.500000	0.961000   
426.000000	1.163000   
426.500000	1.179000   
427.000000	1.060000   
427.500000	0.967000   
428.000000	1.007000   
428.500000	1.091000   
429.000000	1.155000   
429.500000	1.083000   
430.000000	1.092000   
430.500000	1.072000   
431.000000	1.021000   
431.500000	1.012000   
432.000000	0.999000   
432.500000	1.022000   
433.000000	0.964000   
433.500000	1.004000   
434.000000	1.072000   
434.500000	1.047000   
435.000000	1.059000   
435.500000	0.981000   
436.000000	1.052000   
436.500000	0.937000   
437.000000	1.061000   
437.500000	1.098000   
438.000000	0.883000   
438.500000	0.992000   
439.000000	0.945000   
439.500000	1.171000   
440.000000	1.025000   
440.500000	1.102000   
441.000000	0.791000   
441.500000	1.034000   
442.000000	0.773000   
442.500000	0.780000   
443.000000	0.900000   
443.500000	0.828000   
444.000000	0.756000   
444.500000	0.886000   
445.000000	0.899000   
445.500000	0.936000   
446.000000	0.903000   
446.500000	1.007000   
447.000000	1.078000   
447.500000	1.005000   
448.000000	1.034000   
448.500000	1.091000   
449.000000	1.050000   
449.500000	1.026000   
450.000000	1.106000   
450.500000	0.989000   
451.000000	0.842000   
451.500000	1.082000   
452.000000	1.115000   
452.500000	1.014000   
453.000000	0.966000   
453.500000	1.005000   
454.000000	1.018000   
454.500000	1.075000   
455.000000	0.920000   
455.500000	1.084000   
456.000000	1.024000   
456.500000	0.858000   
457.000000	0.896000   
457.500000	1.142000   
458.000000	0.992000   
458.500000	1.146000   
459.000000	1.025000   
459.500000	1.122000   
460.000000	1.054000   
460.500000	0.974000   
461.000000	1.131000   
461.500000	1.304000   
462.000000	0.978000   
462.500000	1.008000   
463.000000	0.987000   
463.500000	0.973000   
464.000000	1.022000   
464.500000	0.958000   
465.000000	0.916000   
465.500000	1.030000   
466.000000	0.812000   
466.500000	0.926000   
467.000000	0.995000   
467.500000	0.935000   
468.000000	0.873000   
468.500000	0.911000   
469.000000	0.858000   
469.500000	1.057000   
470.000000	0.777000   
470.500000	0.851000   
471.000000	0.983000   
471.500000	0.962000   
472.000000	0.812999   
472.500000	0.991000   
473.000000	0.888000   
473.500000	0.889000   
474.000000	0.854000   
474.500000	0.782000   
475.000000	0.811000   
475.500000	0.958000   
476.000000	0.823000   
476.500000	0.815999   
477.000000	0.880000   
477.500000	0.852000   
478.000000	0.957000   
478.500000	1.012000   
479.000000	0.975000   
479.500000	0.786000   
480.000000	0.844000   
480.500000	0.978000   
481.000000	0.816999   
481.500000	0.921000   
482.000000	0.920000   
482.500000	1.051000   
483.000000	0.829000   
483.500000	0.826000   
484.000000	0.922000   
484.500000	0.806000   
485.000000	0.937999   
485.500000	1.111000   
486.000000	0.953000   
486.500000	0.915000   
487.000000	0.984000   
487.500000	0.922000   
488.000000	0.908000   
488.500000	0.877000   
489.000000	0.711000   
489.500000	0.914000   
490.000000	0.992000   
490.500000	1.069000   
491.000000	1.087000   
491.500000	0.991000   
492.000000	0.824000   
492.500000	0.674000   
493.000000	0.805000   
493.500000	1.008000   
494.000000	0.913000   
494.500000	0.961000   
495.000000	0.881000   
495.500000	0.928000   
496.000000	0.900000   
496.500000	0.902000   
497.000000	0.965000   
497.500000	0.906000   
498.000000	0.891000   
498.500000	0.802000   
499.000000	0.834000   
499.500000	0.879000   
500.000000	0.805000   
500.500000	0.844000   
501.000000	0.830000   
501.500000	0.850000   
502.000000	0.675000   
502.500000	0.812000   
503.000000	0.770000   
503.500000	1.041000   
504.000000	0.785000   
504.500000	0.692999   
505.000000	0.755000   
505.500000	0.749000   
506.000000	0.594000   
506.500000	0.696000   
507.000000	0.681000   
507.500000	0.639000   
508.000000	0.665000   
508.500000	0.654000   
509.000000	0.854000   
509.500000	0.714000   
510.000000	0.740000   
510.500000	0.736000   
511.000000	0.569000   
511.500000	0.606000   
512.000000	0.753000   
512.500000	0.767000   
513.000000	0.798000   
513.500000	0.682000   
514.000000	0.678000   
514.500000	0.835000   
515.000000	0.679000   
515.500000	0.674000   
516.000000	0.823000   
516.500000	0.650000   
517.000000	0.716000   
517.500000	0.719000   
518.000000	0.714000   
518.500000	0.744000   
519.000000	0.806000   
519.500000	0.674000   
520.000000	0.907000   
520.500000	0.710000   
521.000000	0.802000   
521.500000	0.787000   
522.000000	0.856000   
522.500000	0.646000   
523.000000	0.749000   
523.500000	0.807000   
524.000000	0.740000   
524.500000	0.720000   
525.000000	0.817999   
525.500000	0.807000   
526.000000	0.728000   
526.500000	0.496000   
527.000000	0.673000   
527.500000	0.607000   
528.000000	0.599000   
528.500000	0.688999   
529.000000	0.669000   
529.500000	0.437000   
530.000000	0.598000   
530.500000	0.799000   
531.000000	0.696000   
531.500000	0.612000   
532.000000	0.626000   
532.500000	0.602000   
533.000000	0.812999   
533.500000	0.638000   
534.000000	0.637000   
534.500000	0.799000   
535.000000	0.771000   
535.500000	0.683000   
536.000000	0.591000   
536.500000	0.583000   
537.000000	0.542000   
537.500000	0.662000   
538.000000	0.638000   
538.500000	0.624000   
539.000000	0.734000   
539.500000	0.849000   
540.000000	0.734000   
540.500000	0.672000   
541.000000	0.709000   
541.500000	0.793000   
542.000000	0.648000   
542.500000	0.644000   
543.000000	0.700000   
543.500000	0.607000   
544.000000	0.569000   
544.500000	0.630000   
545.000000	0.575000   
545.500000	0.549000   
546.000000	0.485000   
546.500000	0.575000   
547.000000	0.598000   
547.500000	0.706000   
548.000000	0.578000   
548.500000	0.523000   

