PE FL                   SPECTRUM    ASCII       PEDS        1.60        
  -1
01840E~1.SP
19/01/24
10:55:02.00
19/01/24
10:55:02.00


548.500000
1









LS45
515.00
10.00
10.00
SCAN
1
16
100
100
0
600
0
1
0
1
7
ON
435 365 
0 0 0
#HDR
-1
-1
#GR
NM
INT 
0.00002384185791015625
0.0
230.000000
0.500000
638
8
112.650000
-0.001000
#DATA
230.000000	0.000000   
230.500000	0.016000   
231.000000	0.000000   
231.500000	0.000000   
232.000000	0.000000   
232.500000	0.000000   
233.000000	0.007000   
233.500000	0.033000   
234.000000	0.029000   
234.500000	0.020000   
235.000000	0.028000   
235.500000	0.002000   
236.000000	0.004000   
236.500000	-0.001000  
237.000000	0.000000   
237.500000	0.008000   
238.000000	0.033000   
238.500000	0.029000   
239.000000	0.016000   
239.500000	0.018000   
240.000000	0.037000   
240.500000	0.078000   
241.000000	0.073000   
241.500000	0.070000   
242.000000	0.139000   
242.500000	0.098000   
243.000000	0.179000   
243.500000	0.246000   
244.000000	0.198000   
244.500000	0.314000   
245.000000	0.393000   
245.500000	0.419000   
246.000000	0.403000   
246.500000	0.499000   
247.000000	0.692999   
247.500000	0.764000   
248.000000	0.784000   
248.500000	0.876000   
249.000000	1.083000   
249.500000	1.242000   
250.000000	1.206000   
250.500000	1.521000   
251.000000	1.538000   
251.500000	1.651000   
252.000000	1.804000   
252.500000	1.710000   
253.000000	1.829000   
253.500000	1.842000   
254.000000	1.865000   
254.500000	1.852000   
255.000000	1.873000   
255.500000	2.035000   
256.000000	1.983000   
256.500000	1.818000   
257.000000	1.844000   
257.500000	1.911000   
258.000000	1.706000   
258.500000	1.670000   
259.000000	1.719000   
259.500000	1.784000   
260.000000	1.412000   
260.500000	1.216000   
261.000000	1.175000   
261.500000	1.089000   
262.000000	1.141000   
262.500000	0.958000   
263.000000	0.953000   
263.500000	0.769000   
264.000000	0.604000   
264.500000	0.514000   
265.000000	0.480000   
265.500000	0.392000   
266.000000	0.359000   
266.500000	0.358000   
267.000000	0.324000   
267.500000	0.365000   
268.000000	0.284000   
268.500000	0.295000   
269.000000	0.335000   
269.500000	0.350000   
270.000000	0.353000   
270.500000	0.356000   
271.000000	0.397000   
271.500000	0.507000   
272.000000	0.521000   
272.500000	0.556000   
273.000000	0.556000   
273.500000	0.520000   
274.000000	0.674000   
274.500000	0.703000   
275.000000	0.698000   
275.500000	0.827000   
276.000000	0.786000   
276.500000	0.863000   
277.000000	1.131000   
277.500000	0.948000   
278.000000	0.977000   
278.500000	1.013000   
279.000000	1.189000   
279.500000	1.087000   
280.000000	1.051000   
280.500000	1.007000   
281.000000	1.016000   
281.500000	1.048000   
282.000000	0.991000   
282.500000	0.896000   
283.000000	0.941999   
283.500000	0.919000   
284.000000	0.653000   
284.500000	0.642000   
285.000000	0.778000   
285.500000	0.628000   
286.000000	0.572000   
286.500000	0.562000   
287.000000	0.477000   
287.500000	0.468000   
288.000000	0.400000   
288.500000	0.365000   
289.000000	0.287000   
289.500000	0.237000   
290.000000	0.324000   
290.500000	0.217000   
291.000000	0.189000   
291.500000	0.159000   
292.000000	0.100000   
292.500000	0.097000   
293.000000	0.090000   
293.500000	0.100000   
294.000000	0.079000   
294.500000	0.074000   
295.000000	0.032000   
295.500000	0.063000   
296.000000	0.055000   
296.500000	0.076000   
297.000000	0.075000   
297.500000	0.056000   
298.000000	0.007000   
298.500000	0.042000   
299.000000	0.069000   
299.500000	0.074000   
300.000000	0.071999   
300.500000	0.092000   
301.000000	0.073000   
301.500000	0.053000   
302.000000	0.064000   
302.500000	0.061000   
303.000000	0.101000   
303.500000	0.086999   
304.000000	0.052000   
304.500000	0.054000   
305.000000	0.039000   
305.500000	0.064000   
306.000000	0.076000   
306.500000	0.097000   
307.000000	0.060000   
307.500000	0.062000   
308.000000	0.070999   
308.500000	0.079000   
309.000000	0.066000   
309.500000	0.062000   
310.000000	0.062000   
310.500000	0.101000   
311.000000	0.079000   
311.500000	0.078000   
312.000000	0.131000   
312.500000	0.105000   
313.000000	0.089000   
313.500000	0.082000   
314.000000	0.054000   
314.500000	0.065000   
315.000000	0.056000   
315.500000	0.065000   
316.000000	0.061000   
316.500000	0.090000   
317.000000	0.096000   
317.500000	0.144000   
318.000000	0.094000   
318.500000	0.057000   
319.000000	0.020000   
319.500000	0.040000   
320.000000	0.070999   
320.500000	0.074000   
321.000000	0.056000   
321.500000	0.092000   
322.000000	0.050000   
322.500000	0.048000   
323.000000	0.025000   
323.500000	0.062000   
324.000000	0.070000   
324.500000	0.073000   
325.000000	0.041000   
325.500000	0.032000   
326.000000	0.087999   
326.500000	0.064000   
327.000000	0.053000   
327.500000	0.059000   
328.000000	0.047000   
328.500000	0.062000   
329.000000	0.065000   
329.500000	0.083000   
330.000000	0.112000   
330.500000	0.096000   
331.000000	0.067000   
331.500000	0.067000   
332.000000	0.065000   
332.500000	0.051000   
333.000000	0.032000   
333.500000	0.039000   
334.000000	0.084000   
334.500000	0.027000   
335.000000	0.066000   
335.500000	0.044000   
336.000000	0.029000   
336.500000	0.070999   
337.000000	0.137000   
337.500000	0.070999   
338.000000	0.058000   
338.500000	0.041000   
339.000000	0.081000   
339.500000	0.015000   
340.000000	0.065000   
340.500000	0.055000   
341.000000	0.058000   
341.500000	0.064000   
342.000000	0.109000   
342.500000	0.071999   
343.000000	0.089000   
343.500000	0.093000   
344.000000	0.046000   
344.500000	0.090000   
345.000000	0.075000   
345.500000	0.091000   
346.000000	0.083000   
346.500000	0.073000   
347.000000	0.045000   
347.500000	0.068000   
348.000000	0.039000   
348.500000	0.119000   
349.000000	0.083000   
349.500000	0.074000   
350.000000	0.095000   
350.500000	0.076000   
351.000000	0.051000   
351.500000	0.109000   
352.000000	0.074000   
352.500000	0.095000   
353.000000	0.103000   
353.500000	0.114000   
354.000000	0.036000   
354.500000	0.055000   
355.000000	0.077000   
355.500000	0.063000   
356.000000	0.075000   
356.500000	0.102000   
357.000000	0.091000   
357.500000	0.100000   
358.000000	0.062000   
358.500000	0.069000   
359.000000	0.068000   
359.500000	0.085000   
360.000000	0.108000   
360.500000	0.075000   
361.000000	0.117000   
361.500000	0.051000   
362.000000	0.082000   
362.500000	0.129000   
363.000000	0.086999   
363.500000	0.059000   
364.000000	0.095000   
364.500000	0.101000   
365.000000	0.098000   
365.500000	0.085000   
366.000000	0.092000   
366.500000	0.092000   
367.000000	0.076000   
367.500000	0.100000   
368.000000	0.089000   
368.500000	0.077000   
369.000000	0.083000   
369.500000	0.069000   
370.000000	0.035000   
370.500000	0.104000   
371.000000	0.079000   
371.500000	0.079000   
372.000000	0.103000   
372.500000	0.106000   
373.000000	0.106000   
373.500000	0.094000   
374.000000	0.095000   
374.500000	0.089000   
375.000000	0.059000   
375.500000	0.049000   
376.000000	0.132000   
376.500000	0.104000   
377.000000	0.110000   
377.500000	0.081000   
378.000000	0.082000   
378.500000	0.092000   
379.000000	0.066000   
379.500000	0.083000   
380.000000	0.102000   
380.500000	0.078000   
381.000000	0.063000   
381.500000	0.077000   
382.000000	0.114000   
382.500000	0.106000   
383.000000	0.106000   
383.500000	0.143000   
384.000000	0.084000   
384.500000	0.033000   
385.000000	0.108000   
385.500000	0.121000   
386.000000	0.066000   
386.500000	0.075000   
387.000000	0.050000   
387.500000	0.084000   
388.000000	0.113000   
388.500000	0.093000   
389.000000	0.064000   
389.500000	0.091000   
390.000000	0.128000   
390.500000	0.062000   
391.000000	0.074000   
391.500000	0.109000   
392.000000	0.080000   
392.500000	0.125000   
393.000000	0.076000   
393.500000	0.029000   
394.000000	0.032000   
394.500000	0.101000   
395.000000	0.114000   
395.500000	0.091000   
396.000000	0.081000   
396.500000	0.083000   
397.000000	0.103000   
397.500000	0.111000   
398.000000	0.139000   
398.500000	0.082000   
399.000000	0.086999   
399.500000	0.105000   
400.000000	0.081000   
400.500000	0.075000   
401.000000	0.126000   
401.500000	0.091000   
402.000000	0.075000   
402.500000	0.080000   
403.000000	0.109000   
403.500000	0.042000   
404.000000	0.073000   
404.500000	0.107000   
405.000000	0.153000   
405.500000	0.121000   
406.000000	0.132000   
406.500000	0.108000   
407.000000	0.096000   
407.500000	0.164000   
408.000000	0.117000   
408.500000	0.113000   
409.000000	0.126000   
409.500000	0.090000   
410.000000	0.098000   
410.500000	0.087999   
411.000000	0.098000   
411.500000	0.093000   
412.000000	0.134000   
412.500000	0.172000   
413.000000	0.099000   
413.500000	0.078000   
414.000000	0.121000   
414.500000	0.122000   
415.000000	0.065000   
415.500000	0.124000   
416.000000	0.119000   
416.500000	0.104000   
417.000000	0.106000   
417.500000	0.105000   
418.000000	0.118000   
418.500000	0.116000   
419.000000	0.130000   
419.500000	0.105000   
420.000000	0.112000   
420.500000	0.103000   
421.000000	0.122000   
421.500000	0.101000   
422.000000	0.115000   
422.500000	0.092000   
423.000000	0.106000   
423.500000	0.107000   
424.000000	0.150000   
424.500000	0.131000   
425.000000	0.127000   
425.500000	0.136000   
426.000000	0.106000   
426.500000	0.132000   
427.000000	0.137000   
427.500000	0.083000   
428.000000	0.082000   
428.500000	0.147000   
429.000000	0.156000   
429.500000	0.101000   
430.000000	0.102000   
430.500000	0.115000   
431.000000	0.160000   
431.500000	0.139000   
432.000000	0.148000   
432.500000	0.121000   
433.000000	0.135000   
433.500000	0.183000   
434.000000	0.159000   
434.500000	0.142000   
435.000000	0.104000   
435.500000	0.120000   
436.000000	0.119000   
436.500000	0.120000   
437.000000	0.110000   
437.500000	0.077000   
438.000000	0.130000   
438.500000	0.172000   
439.000000	0.108000   
439.500000	0.140000   
440.000000	0.135000   
440.500000	0.085999   
441.000000	0.141000   
441.500000	0.212000   
442.000000	0.160000   
442.500000	0.145000   
443.000000	0.223000   
443.500000	0.148000   
444.000000	0.120000   
444.500000	0.129000   
445.000000	0.167000   
445.500000	0.180000   
446.000000	0.166000   
446.500000	0.151000   
447.000000	0.146000   
447.500000	0.178000   
448.000000	0.238000   
448.500000	0.160000   
449.000000	0.188000   
449.500000	0.215000   
450.000000	0.129000   
450.500000	0.221000   
451.000000	0.174000   
451.500000	0.192000   
452.000000	0.242000   
452.500000	0.196000   
453.000000	0.213000   
453.500000	0.200000   
454.000000	0.197000   
454.500000	0.167000   
455.000000	0.212000   
455.500000	0.214000   
456.000000	0.235000   
456.500000	0.233000   
457.000000	0.243000   
457.500000	0.217000   
458.000000	0.223000   
458.500000	0.241000   
459.000000	0.291000   
459.500000	0.276000   
460.000000	0.248000   
460.500000	0.224000   
461.000000	0.311000   
461.500000	0.281000   
462.000000	0.248000   
462.500000	0.270000   
463.000000	0.277000   
463.500000	0.209000   
464.000000	0.253000   
464.500000	0.268000   
465.000000	0.226000   
465.500000	0.239000   
466.000000	0.162000   
466.500000	0.246000   
467.000000	0.282000   
467.500000	0.252000   
468.000000	0.223000   
468.500000	0.275000   
469.000000	0.262000   
469.500000	0.292000   
470.000000	0.256000   
470.500000	0.261000   
471.000000	0.290000   
471.500000	0.323000   
472.000000	0.281000   
472.500000	0.303000   
473.000000	0.336000   
473.500000	0.302000   
474.000000	0.405000   
474.500000	0.216000   
475.000000	0.346000   
475.500000	0.224000   
476.000000	0.295000   
476.500000	0.340000   
477.000000	0.358000   
477.500000	0.357000   
478.000000	0.301000   
478.500000	0.317000   
479.000000	0.400000   
479.500000	0.385000   
480.000000	0.486000   
480.500000	0.376000   
481.000000	0.404000   
481.500000	0.450000   
482.000000	0.431000   
482.500000	0.499000   
483.000000	0.496000   
483.500000	0.448000   
484.000000	0.511000   
484.500000	0.396000   
485.000000	0.572000   
485.500000	0.498000   
486.000000	0.469000   
486.500000	0.378000   
487.000000	0.491000   
487.500000	0.500000   
488.000000	0.580000   
488.500000	0.724000   
489.000000	0.614000   
489.500000	0.535000   
490.000000	0.539000   
490.500000	0.620000   
491.000000	0.687999   
491.500000	0.681000   
492.000000	0.812999   
492.500000	1.006000   
493.000000	1.232000   
493.500000	1.678000   
494.000000	1.979000   
494.500000	2.617000   
495.000000	3.133000   
495.500000	4.416000   
496.000000	5.332000   
496.500000	6.701000   
497.000000	8.565000   
497.500000	11.207000  
498.000000	12.548000  
498.500000	14.795000  
499.000000	18.090000  
499.500000	21.549000  
500.000000	25.226000  
500.500000	28.829000  
501.000000	33.119000  
501.500000	37.164000  
502.000000	41.869000  
502.500000	46.972000  
503.000000	52.542000  
503.500000	56.590000  
504.000000	61.614000  
504.500000	66.840000  
505.000000	72.729000  
505.500000	76.893000  
506.000000	82.925000  
506.500000	87.002000  
507.000000	92.111000  
507.500000	97.090999  
508.000000	99.872000  
508.500000	103.038000 
509.000000	107.299000 
509.500000	108.775000 
510.000000	111.139000 
510.500000	112.650000 
511.000000	111.458000 
511.500000	111.243000 
512.000000	110.746000 
512.500000	108.286000 
513.000000	106.434000 
513.500000	103.440000 
514.000000	99.011000  
514.500000	95.229000  
515.000000	89.943000  
515.500000	87.926000  
516.000000	82.230999  
516.500000	76.738000  
517.000000	70.999000  
517.500000	67.169000  
518.000000	60.179000  
518.500000	54.954000  
519.000000	51.162000  
519.500000	46.252000  
520.000000	40.601000  
520.500000	36.437000  
521.000000	32.100000  
521.500000	27.932000  
522.000000	23.435000  
522.500000	21.426000  
523.000000	17.782000  
523.500000	15.280000  
524.000000	12.243000  
524.500000	10.426000  
525.000000	8.154000   
525.500000	6.634000   
526.000000	5.572000   
526.500000	4.418000   
527.000000	4.066000   
527.500000	2.952000   
528.000000	2.377000   
528.500000	1.786000   
529.000000	1.504000   
529.500000	1.221000   
530.000000	1.095000   
530.500000	0.920000   
531.000000	0.764000   
531.500000	0.752000   
532.000000	0.665000   
532.500000	0.659000   
533.000000	0.641000   
533.500000	0.539000   
534.000000	0.570000   
534.500000	0.508000   
535.000000	0.623000   
535.500000	0.499000   
536.000000	0.522000   
536.500000	0.520000   
537.000000	0.597000   
537.500000	0.555000   
538.000000	0.541000   
538.500000	0.531000   
539.000000	0.422000   
539.500000	0.451000   
540.000000	0.425000   
540.500000	0.386000   
541.000000	0.392000   
541.500000	0.485000   
542.000000	0.485000   
542.500000	0.405000   
543.000000	0.398000   
543.500000	0.423000   
544.000000	0.395000   
544.500000	0.471000   
545.000000	0.516000   
545.500000	0.508000   
546.000000	0.637000   
546.500000	0.630000   
547.000000	0.695000   
547.500000	0.832000   
548.000000	0.797000   
548.500000	0.900000   

