PE FL                   SPECTRUM    ASCII       PEDS        1.60        
  -1
01640E~1.SP
19/01/24
10:48:58.00
19/01/24
10:48:58.00


548.500000
1









LS45
475.00
10.00
10.00
SCAN
1
16
100
100
0
600
0
1
0
1
7
ON
435 365 
0 0 0
#HDR
-1
-1
#GR
NM
INT 
0.00002384185791015625
0.0
230.000000
0.500000
638
8
187.281000
0.029000
#DATA
230.000000	0.619000   
230.500000	0.571000   
231.000000	0.694000   
231.500000	0.670000   
232.000000	0.745000   
232.500000	0.880000   
233.000000	0.875000   
233.500000	0.833000   
234.000000	0.883000   
234.500000	0.846000   
235.000000	0.812999   
235.500000	0.812000   
236.000000	0.819000   
236.500000	0.757000   
237.000000	0.801000   
237.500000	0.896000   
238.000000	0.885000   
238.500000	0.802000   
239.000000	0.695000   
239.500000	0.630000   
240.000000	0.603000   
240.500000	0.550000   
241.000000	0.493000   
241.500000	0.494000   
242.000000	0.519000   
242.500000	0.420000   
243.000000	0.408000   
243.500000	0.357000   
244.000000	0.339000   
244.500000	0.318000   
245.000000	0.339000   
245.500000	0.369000   
246.000000	0.356000   
246.500000	0.326000   
247.000000	0.217000   
247.500000	0.354000   
248.000000	0.422000   
248.500000	0.487000   
249.000000	0.414000   
249.500000	0.485000   
250.000000	0.511000   
250.500000	0.571000   
251.000000	0.564999   
251.500000	0.657000   
252.000000	0.619000   
252.500000	0.643000   
253.000000	0.845000   
253.500000	0.878000   
254.000000	0.836000   
254.500000	0.833000   
255.000000	0.793000   
255.500000	0.920000   
256.000000	0.859000   
256.500000	0.830000   
257.000000	0.789000   
257.500000	0.723000   
258.000000	0.732000   
258.500000	0.632000   
259.000000	0.750000   
259.500000	0.687999   
260.000000	0.592000   
260.500000	0.595000   
261.000000	0.460000   
261.500000	0.361000   
262.000000	0.319000   
262.500000	0.289000   
263.000000	0.348000   
263.500000	0.367000   
264.000000	0.247000   
264.500000	0.300000   
265.000000	0.262000   
265.500000	0.256000   
266.000000	0.176000   
266.500000	0.131000   
267.000000	0.114000   
267.500000	0.125000   
268.000000	0.089000   
268.500000	0.103000   
269.000000	0.073000   
269.500000	0.155000   
270.000000	0.109000   
270.500000	0.082000   
271.000000	0.059000   
271.500000	0.045000   
272.000000	0.034000   
272.500000	0.040000   
273.000000	0.039000   
273.500000	0.044000   
274.000000	0.037000   
274.500000	0.056000   
275.000000	0.054000   
275.500000	0.039000   
276.000000	0.061000   
276.500000	0.060000   
277.000000	0.050000   
277.500000	0.083000   
278.000000	0.083000   
278.500000	0.054000   
279.000000	0.052000   
279.500000	0.029000   
280.000000	0.065000   
280.500000	0.070999   
281.000000	0.032000   
281.500000	0.094000   
282.000000	0.097000   
282.500000	0.085999   
283.000000	0.086999   
283.500000	0.111000   
284.000000	0.096000   
284.500000	0.077000   
285.000000	0.053000   
285.500000	0.070999   
286.000000	0.056000   
286.500000	0.060000   
287.000000	0.064000   
287.500000	0.061000   
288.000000	0.070000   
288.500000	0.077000   
289.000000	0.048000   
289.500000	0.095000   
290.000000	0.085999   
290.500000	0.046000   
291.000000	0.089000   
291.500000	0.074000   
292.000000	0.061000   
292.500000	0.103000   
293.000000	0.070999   
293.500000	0.070000   
294.000000	0.054000   
294.500000	0.120000   
295.000000	0.079000   
295.500000	0.074000   
296.000000	0.071999   
296.500000	0.081000   
297.000000	0.116000   
297.500000	0.054000   
298.000000	0.076000   
298.500000	0.103000   
299.000000	0.141000   
299.500000	0.101000   
300.000000	0.105000   
300.500000	0.130000   
301.000000	0.145000   
301.500000	0.042000   
302.000000	0.065000   
302.500000	0.105000   
303.000000	0.065000   
303.500000	0.106000   
304.000000	0.144000   
304.500000	0.084000   
305.000000	0.087999   
305.500000	0.097000   
306.000000	0.091000   
306.500000	0.115000   
307.000000	0.113000   
307.500000	0.132000   
308.000000	0.106000   
308.500000	0.085000   
309.000000	0.100000   
309.500000	0.099000   
310.000000	0.083000   
310.500000	0.114000   
311.000000	0.108000   
311.500000	0.109000   
312.000000	0.185000   
312.500000	0.140000   
313.000000	0.155000   
313.500000	0.133000   
314.000000	0.111000   
314.500000	0.092000   
315.000000	0.131000   
315.500000	0.119000   
316.000000	0.116000   
316.500000	0.108000   
317.000000	0.115000   
317.500000	0.109000   
318.000000	0.077000   
318.500000	0.094000   
319.000000	0.134000   
319.500000	0.118000   
320.000000	0.129000   
320.500000	0.119000   
321.000000	0.131000   
321.500000	0.097000   
322.000000	0.084000   
322.500000	0.152000   
323.000000	0.148000   
323.500000	0.147000   
324.000000	0.196000   
324.500000	0.162000   
325.000000	0.138000   
325.500000	0.153000   
326.000000	0.113000   
326.500000	0.165000   
327.000000	0.169000   
327.500000	0.109000   
328.000000	0.110000   
328.500000	0.111000   
329.000000	0.150000   
329.500000	0.151000   
330.000000	0.160000   
330.500000	0.190000   
331.000000	0.174000   
331.500000	0.144000   
332.000000	0.168000   
332.500000	0.228000   
333.000000	0.142000   
333.500000	0.212000   
334.000000	0.113000   
334.500000	0.165000   
335.000000	0.156000   
335.500000	0.206000   
336.000000	0.229000   
336.500000	0.170000   
337.000000	0.173000   
337.500000	0.129000   
338.000000	0.137000   
338.500000	0.167000   
339.000000	0.216000   
339.500000	0.139000   
340.000000	0.177000   
340.500000	0.228000   
341.000000	0.195000   
341.500000	0.190000   
342.000000	0.159000   
342.500000	0.207000   
343.000000	0.156000   
343.500000	0.175000   
344.000000	0.184000   
344.500000	0.150000   
345.000000	0.163000   
345.500000	0.187000   
346.000000	0.099000   
346.500000	0.130000   
347.000000	0.135000   
347.500000	0.148000   
348.000000	0.242000   
348.500000	0.202000   
349.000000	0.155000   
349.500000	0.197000   
350.000000	0.112000   
350.500000	0.159000   
351.000000	0.177000   
351.500000	0.162000   
352.000000	0.136000   
352.500000	0.171000   
353.000000	0.248000   
353.500000	0.137000   
354.000000	0.119000   
354.500000	0.146000   
355.000000	0.187000   
355.500000	0.170000   
356.000000	0.148000   
356.500000	0.141000   
357.000000	0.168000   
357.500000	0.174000   
358.000000	0.161000   
358.500000	0.156000   
359.000000	0.187000   
359.500000	0.272000   
360.000000	0.176000   
360.500000	0.142000   
361.000000	0.103000   
361.500000	0.128000   
362.000000	0.150000   
362.500000	0.170000   
363.000000	0.167000   
363.500000	0.114000   
364.000000	0.141000   
364.500000	0.115000   
365.000000	0.146000   
365.500000	0.123000   
366.000000	0.144000   
366.500000	0.237000   
367.000000	0.155000   
367.500000	0.138000   
368.000000	0.152000   
368.500000	0.199000   
369.000000	0.191000   
369.500000	0.149000   
370.000000	0.166000   
370.500000	0.152000   
371.000000	0.163000   
371.500000	0.173000   
372.000000	0.155000   
372.500000	0.178000   
373.000000	0.188000   
373.500000	0.134000   
374.000000	0.208000   
374.500000	0.221000   
375.000000	0.226000   
375.500000	0.178000   
376.000000	0.113000   
376.500000	0.160000   
377.000000	0.118000   
377.500000	0.110000   
378.000000	0.155000   
378.500000	0.143000   
379.000000	0.120000   
379.500000	0.143000   
380.000000	0.149000   
380.500000	0.117000   
381.000000	0.143000   
381.500000	0.186000   
382.000000	0.234000   
382.500000	0.128000   
383.000000	0.155000   
383.500000	0.226000   
384.000000	0.213000   
384.500000	0.205000   
385.000000	0.149000   
385.500000	0.137000   
386.000000	0.155000   
386.500000	0.170000   
387.000000	0.165000   
387.500000	0.174000   
388.000000	0.218000   
388.500000	0.185000   
389.000000	0.218000   
389.500000	0.157000   
390.000000	0.182000   
390.500000	0.138000   
391.000000	0.171000   
391.500000	0.201000   
392.000000	0.225000   
392.500000	0.235000   
393.000000	0.237000   
393.500000	0.206000   
394.000000	0.121000   
394.500000	0.174000   
395.000000	0.162000   
395.500000	0.183000   
396.000000	0.121000   
396.500000	0.103000   
397.000000	0.171000   
397.500000	0.113000   
398.000000	0.145000   
398.500000	0.187000   
399.000000	0.175000   
399.500000	0.182000   
400.000000	0.168000   
400.500000	0.257000   
401.000000	0.305000   
401.500000	0.216000   
402.000000	0.201000   
402.500000	0.217000   
403.000000	0.217000   
403.500000	0.250000   
404.000000	0.216000   
404.500000	0.186000   
405.000000	0.168000   
405.500000	0.197000   
406.000000	0.184000   
406.500000	0.243000   
407.000000	0.259000   
407.500000	0.210000   
408.000000	0.204000   
408.500000	0.182000   
409.000000	0.171000   
409.500000	0.172000   
410.000000	0.262000   
410.500000	0.276000   
411.000000	0.224000   
411.500000	0.272000   
412.000000	0.249000   
412.500000	0.168000   
413.000000	0.223000   
413.500000	0.256000   
414.000000	0.198000   
414.500000	0.190000   
415.000000	0.230000   
415.500000	0.295000   
416.000000	0.304000   
416.500000	0.390000   
417.000000	0.264000   
417.500000	0.258000   
418.000000	0.338000   
418.500000	0.378000   
419.000000	0.309000   
419.500000	0.364000   
420.000000	0.395000   
420.500000	0.385000   
421.000000	0.308000   
421.500000	0.386000   
422.000000	0.330000   
422.500000	0.342000   
423.000000	0.325000   
423.500000	0.282000   
424.000000	0.377000   
424.500000	0.342000   
425.000000	0.280000   
425.500000	0.344000   
426.000000	0.293000   
426.500000	0.344000   
427.000000	0.364000   
427.500000	0.298000   
428.000000	0.376000   
428.500000	0.295000   
429.000000	0.252000   
429.500000	0.303000   
430.000000	0.338000   
430.500000	0.434000   
431.000000	0.411000   
431.500000	0.483000   
432.000000	0.479000   
432.500000	0.497000   
433.000000	0.457000   
433.500000	0.390000   
434.000000	0.361000   
434.500000	0.341000   
435.000000	0.375000   
435.500000	0.464000   
436.000000	0.366000   
436.500000	0.537000   
437.000000	0.513000   
437.500000	0.386000   
438.000000	0.417000   
438.500000	0.424000   
439.000000	0.439000   
439.500000	0.416000   
440.000000	0.458000   
440.500000	0.450000   
441.000000	0.471000   
441.500000	0.529000   
442.000000	0.495000   
442.500000	0.502000   
443.000000	0.563999   
443.500000	0.552000   
444.000000	0.576000   
444.500000	0.634000   
445.000000	0.551000   
445.500000	0.567999   
446.000000	0.749000   
446.500000	0.663000   
447.000000	0.597000   
447.500000	0.550000   
448.000000	0.616000   
448.500000	0.786000   
449.000000	0.824000   
449.500000	0.887000   
450.000000	0.895000   
450.500000	0.949000   
451.000000	0.947000   
451.500000	1.150000   
452.000000	1.493000   
452.500000	1.648000   
453.000000	2.019000   
453.500000	3.114000   
454.000000	3.873000   
454.500000	4.774000   
455.000000	6.065000   
455.500000	7.789000   
456.000000	10.018000  
456.500000	12.771000  
457.000000	15.188000  
457.500000	18.734000  
458.000000	22.102000  
458.500000	26.161000  
459.000000	32.065000  
459.500000	38.009000  
460.000000	43.270000  
460.500000	48.630000  
461.000000	56.392000  
461.500000	63.247000  
462.000000	71.520000  
462.500000	79.483000  
463.000000	88.535000  
463.500000	95.633000  
464.000000	107.470000 
464.500000	117.385000 
465.000000	127.057000 
465.500000	134.755000 
466.000000	141.318000 
466.500000	148.713000 
467.000000	157.703000 
467.500000	163.662000 
468.000000	173.764000 
468.500000	177.159000 
469.000000	181.073000 
469.500000	183.885000 
470.000000	187.204000 
470.500000	187.281000 
471.000000	185.132000 
471.500000	183.960000 
472.000000	183.106000 
472.500000	178.085000 
473.000000	173.538000 
473.500000	168.656000 
474.000000	163.366000 
474.500000	158.095000 
475.000000	148.697000 
475.500000	139.884000 
476.000000	130.688000 
476.500000	123.495000 
477.000000	113.594000 
477.500000	105.491000 
478.000000	95.011000  
478.500000	86.673000  
479.000000	76.962999  
479.500000	69.505000  
480.000000	61.393000  
480.500000	55.260000  
481.000000	48.066000  
481.500000	42.118000  
482.000000	37.703000  
482.500000	31.021000  
483.000000	26.869000  
483.500000	21.976000  
484.000000	18.809000  
484.500000	15.189000  
485.000000	13.231000  
485.500000	10.007000  
486.000000	8.388999   
486.500000	6.588000   
487.000000	5.603000   
487.500000	4.704000   
488.000000	3.817000   
488.500000	3.280000   
489.000000	2.521000   
489.500000	2.238000   
490.000000	1.995000   
490.500000	1.803000   
491.000000	1.700000   
491.500000	1.536000   
492.000000	1.416000   
492.500000	1.101000   
493.000000	1.227000   
493.500000	1.350000   
494.000000	1.187000   
494.500000	1.197000   
495.000000	1.395000   
495.500000	1.172000   
496.000000	1.238000   
496.500000	1.401000   
497.000000	1.452000   
497.500000	1.286000   
498.000000	1.302000   
498.500000	1.511000   
499.000000	1.465000   
499.500000	1.468000   
500.000000	1.598000   
500.500000	1.989000   
501.000000	1.889000   
501.500000	2.086000   
502.000000	2.215000   
502.500000	2.459000   
503.000000	2.559000   
503.500000	2.652000   
504.000000	2.745000   
504.500000	3.136000   
505.000000	3.203000   
505.500000	3.278000   
506.000000	3.469000   
506.500000	3.559000   
507.000000	3.612000   
507.500000	3.903000   
508.000000	4.149000   
508.500000	4.121000   
509.000000	4.541000   
509.500000	4.426000   
510.000000	4.648000   
510.500000	4.754000   
511.000000	5.060000   
511.500000	5.154000   
512.000000	4.901000   
512.500000	5.172000   
513.000000	4.810000   
513.500000	4.767000   
514.000000	4.810000   
514.500000	4.354000   
515.000000	4.310000   
515.500000	4.772000   
516.000000	4.495000   
516.500000	4.274000   
517.000000	4.068000   
517.500000	3.658000   
518.000000	3.627000   
518.500000	3.491000   
519.000000	3.361000   
519.500000	3.436000   
520.000000	2.867000   
520.500000	2.547000   
521.000000	2.422000   
521.500000	2.034000   
522.000000	2.071000   
522.500000	1.989000   
523.000000	1.734000   
523.500000	1.625000   
524.000000	1.524000   
524.500000	1.373000   
525.000000	1.190000   
525.500000	1.041000   
526.000000	0.950000   
526.500000	1.013000   
527.000000	0.867000   
527.500000	0.739000   
528.000000	0.660000   
528.500000	0.705000   
529.000000	0.588000   
529.500000	0.489000   
530.000000	0.507000   
530.500000	0.415000   
531.000000	0.339000   
531.500000	0.280000   
532.000000	0.351000   
532.500000	0.314000   
533.000000	0.324000   
533.500000	0.314000   
534.000000	0.278000   
534.500000	0.282000   
535.000000	0.272000   
535.500000	0.285000   
536.000000	0.274000   
536.500000	0.275000   
537.000000	0.278000   
537.500000	0.310000   
538.000000	0.275000   
538.500000	0.295000   
539.000000	0.330000   
539.500000	0.355000   
540.000000	0.358000   
540.500000	0.396000   
541.000000	0.348000   
541.500000	0.355000   
542.000000	0.451000   
542.500000	0.414000   
543.000000	0.474000   
543.500000	0.481000   
544.000000	0.515000   
544.500000	0.546000   
545.000000	0.658000   
545.500000	0.556000   
546.000000	0.607000   
546.500000	0.715000   
547.000000	0.836000   
547.500000	0.867000   
548.000000	0.844000   
548.500000	0.873000   

