PE FL                   SPECTRUM    ASCII       PEDS        1.60        
  -1
01800E~1.SP
19/01/24
10:47:28.00
19/01/24
10:47:28.00


548.500000
1









LS45
465.00
10.00
10.00
SCAN
1
16
100
100
0
600
0
1
0
1
7
ON
435 365 
0 0 0
#HDR
-1
-1
#GR
NM
INT 
0.00002384185791015625
0.0
230.000000
0.500000
638
8
226.811000
0.039000
#DATA
230.000000	1.256000   
230.500000	1.401000   
231.000000	1.258000   
231.500000	1.171000   
232.000000	1.137000   
232.500000	1.185000   
233.000000	1.236000   
233.500000	1.099000   
234.000000	0.927000   
234.500000	0.996000   
235.000000	0.947000   
235.500000	0.795000   
236.000000	0.875000   
236.500000	0.749000   
237.000000	0.725000   
237.500000	0.771000   
238.000000	0.722000   
238.500000	0.657000   
239.000000	0.589000   
239.500000	0.595000   
240.000000	0.641000   
240.500000	0.606000   
241.000000	0.610000   
241.500000	0.701000   
242.000000	0.692999   
242.500000	0.701000   
243.000000	0.720000   
243.500000	0.795000   
244.000000	0.891000   
244.500000	0.893000   
245.000000	0.921000   
245.500000	0.942999   
246.000000	1.020000   
246.500000	1.154000   
247.000000	1.144000   
247.500000	1.314000   
248.000000	1.426000   
248.500000	1.184000   
249.000000	1.036000   
249.500000	1.269000   
250.000000	1.191000   
250.500000	1.102000   
251.000000	1.131000   
251.500000	1.120000   
252.000000	0.957000   
252.500000	0.989000   
253.000000	0.855000   
253.500000	0.836000   
254.000000	0.806000   
254.500000	0.819000   
255.000000	0.702000   
255.500000	0.725000   
256.000000	0.635000   
256.500000	0.456000   
257.000000	0.423000   
257.500000	0.435000   
258.000000	0.364000   
258.500000	0.215000   
259.000000	0.266000   
259.500000	0.257000   
260.000000	0.220000   
260.500000	0.108000   
261.000000	0.220000   
261.500000	0.149000   
262.000000	0.104000   
262.500000	0.093000   
263.000000	0.106000   
263.500000	0.070000   
264.000000	0.089000   
264.500000	0.047000   
265.000000	0.059000   
265.500000	0.112000   
266.000000	0.063000   
266.500000	0.046000   
267.000000	0.084000   
267.500000	0.079000   
268.000000	0.081000   
268.500000	0.084000   
269.000000	0.073000   
269.500000	0.061000   
270.000000	0.075000   
270.500000	0.085000   
271.000000	0.107000   
271.500000	0.046000   
272.000000	0.058000   
272.500000	0.090000   
273.000000	0.062000   
273.500000	0.077000   
274.000000	0.092000   
274.500000	0.054000   
275.000000	0.039000   
275.500000	0.062000   
276.000000	0.068000   
276.500000	0.094000   
277.000000	0.101000   
277.500000	0.096000   
278.000000	0.054000   
278.500000	0.091000   
279.000000	0.087999   
279.500000	0.087999   
280.000000	0.065000   
280.500000	0.054000   
281.000000	0.058000   
281.500000	0.096000   
282.000000	0.129000   
282.500000	0.119000   
283.000000	0.084000   
283.500000	0.084000   
284.000000	0.080000   
284.500000	0.159000   
285.000000	0.089000   
285.500000	0.075000   
286.000000	0.128000   
286.500000	0.123000   
287.000000	0.118000   
287.500000	0.136000   
288.000000	0.104000   
288.500000	0.123000   
289.000000	0.117000   
289.500000	0.113000   
290.000000	0.129000   
290.500000	0.146000   
291.000000	0.137000   
291.500000	0.151000   
292.000000	0.168000   
292.500000	0.143000   
293.000000	0.191000   
293.500000	0.162000   
294.000000	0.128000   
294.500000	0.148000   
295.000000	0.177000   
295.500000	0.171000   
296.000000	0.129000   
296.500000	0.184000   
297.000000	0.131000   
297.500000	0.132000   
298.000000	0.143000   
298.500000	0.141000   
299.000000	0.194000   
299.500000	0.162000   
300.000000	0.193000   
300.500000	0.206000   
301.000000	0.256000   
301.500000	0.203000   
302.000000	0.238000   
302.500000	0.231000   
303.000000	0.161000   
303.500000	0.278000   
304.000000	0.291000   
304.500000	0.125000   
305.000000	0.200000   
305.500000	0.157000   
306.000000	0.163000   
306.500000	0.198000   
307.000000	0.245000   
307.500000	0.219000   
308.000000	0.210000   
308.500000	0.244000   
309.000000	0.274000   
309.500000	0.247000   
310.000000	0.179000   
310.500000	0.255000   
311.000000	0.198000   
311.500000	0.230000   
312.000000	0.251000   
312.500000	0.323000   
313.000000	0.167000   
313.500000	0.213000   
314.000000	0.270000   
314.500000	0.263000   
315.000000	0.227000   
315.500000	0.259000   
316.000000	0.272000   
316.500000	0.279000   
317.000000	0.283000   
317.500000	0.316000   
318.000000	0.247000   
318.500000	0.326000   
319.000000	0.263000   
319.500000	0.210000   
320.000000	0.358000   
320.500000	0.349000   
321.000000	0.313000   
321.500000	0.260000   
322.000000	0.281000   
322.500000	0.363000   
323.000000	0.328000   
323.500000	0.352000   
324.000000	0.423000   
324.500000	0.364000   
325.000000	0.382000   
325.500000	0.313000   
326.000000	0.357000   
326.500000	0.475000   
327.000000	0.403000   
327.500000	0.449000   
328.000000	0.380000   
328.500000	0.461000   
329.000000	0.516000   
329.500000	0.331000   
330.000000	0.327000   
330.500000	0.378000   
331.000000	0.432000   
331.500000	0.338000   
332.000000	0.479000   
332.500000	0.438000   
333.000000	0.419000   
333.500000	0.346000   
334.000000	0.305000   
334.500000	0.349000   
335.000000	0.402000   
335.500000	0.421000   
336.000000	0.413000   
336.500000	0.388000   
337.000000	0.428000   
337.500000	0.306000   
338.000000	0.419000   
338.500000	0.556000   
339.000000	0.392000   
339.500000	0.355000   
340.000000	0.284000   
340.500000	0.453000   
341.000000	0.449000   
341.500000	0.533000   
342.000000	0.465000   
342.500000	0.374000   
343.000000	0.327000   
343.500000	0.352000   
344.000000	0.386000   
344.500000	0.363000   
345.000000	0.411000   
345.500000	0.372000   
346.000000	0.286000   
346.500000	0.339000   
347.000000	0.352000   
347.500000	0.392000   
348.000000	0.390000   
348.500000	0.356000   
349.000000	0.425000   
349.500000	0.346000   
350.000000	0.376000   
350.500000	0.327000   
351.000000	0.349000   
351.500000	0.350000   
352.000000	0.379000   
352.500000	0.312000   
353.000000	0.385000   
353.500000	0.290000   
354.000000	0.309000   
354.500000	0.312000   
355.000000	0.352000   
355.500000	0.381000   
356.000000	0.274000   
356.500000	0.287000   
357.000000	0.344000   
357.500000	0.351000   
358.000000	0.300000   
358.500000	0.280000   
359.000000	0.274000   
359.500000	0.357000   
360.000000	0.342000   
360.500000	0.255000   
361.000000	0.282000   
361.500000	0.335000   
362.000000	0.364000   
362.500000	0.278000   
363.000000	0.262000   
363.500000	0.251000   
364.000000	0.224000   
364.500000	0.220000   
365.000000	0.251000   
365.500000	0.282000   
366.000000	0.345000   
366.500000	0.294000   
367.000000	0.258000   
367.500000	0.291000   
368.000000	0.357000   
368.500000	0.291000   
369.000000	0.259000   
369.500000	0.298000   
370.000000	0.320000   
370.500000	0.266000   
371.000000	0.327000   
371.500000	0.328000   
372.000000	0.258000   
372.500000	0.324000   
373.000000	0.260000   
373.500000	0.281000   
374.000000	0.328000   
374.500000	0.308000   
375.000000	0.287000   
375.500000	0.311000   
376.000000	0.253000   
376.500000	0.257000   
377.000000	0.257000   
377.500000	0.365000   
378.000000	0.243000   
378.500000	0.299000   
379.000000	0.261000   
379.500000	0.291000   
380.000000	0.197000   
380.500000	0.242000   
381.000000	0.286000   
381.500000	0.232000   
382.000000	0.275000   
382.500000	0.237000   
383.000000	0.240000   
383.500000	0.255000   
384.000000	0.250000   
384.500000	0.201000   
385.000000	0.196000   
385.500000	0.236000   
386.000000	0.288000   
386.500000	0.305000   
387.000000	0.251000   
387.500000	0.234000   
388.000000	0.280000   
388.500000	0.250000   
389.000000	0.259000   
389.500000	0.210000   
390.000000	0.259000   
390.500000	0.298000   
391.000000	0.303000   
391.500000	0.254000   
392.000000	0.316000   
392.500000	0.245000   
393.000000	0.281000   
393.500000	0.277000   
394.000000	0.254000   
394.500000	0.234000   
395.000000	0.181000   
395.500000	0.283000   
396.000000	0.271000   
396.500000	0.321000   
397.000000	0.226000   
397.500000	0.195000   
398.000000	0.243000   
398.500000	0.245000   
399.000000	0.277000   
399.500000	0.178000   
400.000000	0.222000   
400.500000	0.279000   
401.000000	0.311000   
401.500000	0.269000   
402.000000	0.316000   
402.500000	0.255000   
403.000000	0.300000   
403.500000	0.408000   
404.000000	0.422000   
404.500000	0.358000   
405.000000	0.265000   
405.500000	0.280000   
406.000000	0.327000   
406.500000	0.383000   
407.000000	0.278000   
407.500000	0.349000   
408.000000	0.310000   
408.500000	0.434000   
409.000000	0.416000   
409.500000	0.378000   
410.000000	0.297000   
410.500000	0.367000   
411.000000	0.349000   
411.500000	0.366000   
412.000000	0.363000   
412.500000	0.350000   
413.000000	0.411000   
413.500000	0.422000   
414.000000	0.392000   
414.500000	0.448000   
415.000000	0.456000   
415.500000	0.328000   
416.000000	0.422000   
416.500000	0.409000   
417.000000	0.414000   
417.500000	0.350000   
418.000000	0.465000   
418.500000	0.471000   
419.000000	0.443000   
419.500000	0.460000   
420.000000	0.451000   
420.500000	0.376000   
421.000000	0.454000   
421.500000	0.378000   
422.000000	0.425000   
422.500000	0.491000   
423.000000	0.461000   
423.500000	0.490000   
424.000000	0.450000   
424.500000	0.444000   
425.000000	0.484000   
425.500000	0.544000   
426.000000	0.516000   
426.500000	0.498000   
427.000000	0.404000   
427.500000	0.433000   
428.000000	0.541000   
428.500000	0.571000   
429.000000	0.514000   
429.500000	0.517000   
430.000000	0.509000   
430.500000	0.557000   
431.000000	0.516000   
431.500000	0.541000   
432.000000	0.565999   
432.500000	0.594000   
433.000000	0.618000   
433.500000	0.566999   
434.000000	0.499000   
434.500000	0.614000   
435.000000	0.740000   
435.500000	0.678000   
436.000000	0.645000   
436.500000	0.648000   
437.000000	0.673000   
437.500000	0.764000   
438.000000	0.732000   
438.500000	0.842000   
439.000000	0.734000   
439.500000	0.723000   
440.000000	0.782000   
440.500000	0.804000   
441.000000	1.039000   
441.500000	1.166000   
442.000000	1.369000   
442.500000	1.653000   
443.000000	2.030000   
443.500000	2.611000   
444.000000	3.474000   
444.500000	4.590000   
445.000000	5.763000   
445.500000	7.636000   
446.000000	9.648999   
446.500000	12.971000  
447.000000	17.412000  
447.500000	22.055000  
448.000000	25.916000  
448.500000	33.541000  
449.000000	38.541000  
449.500000	46.941000  
450.000000	51.804000  
450.500000	63.901000  
451.000000	70.482000  
451.500000	79.773000  
452.000000	87.047000  
452.500000	97.858999  
453.000000	112.720000 
453.500000	125.756000 
454.000000	134.379000 
454.500000	147.852000 
455.000000	155.601000 
455.500000	169.778000 
456.000000	181.999000 
456.500000	190.571000 
457.000000	197.637000 
457.500000	204.137000 
458.000000	212.389000 
458.500000	216.916000 
459.000000	221.607000 
459.500000	226.811000 
460.000000	225.552000 
460.500000	225.752000 
461.000000	226.689000 
461.500000	224.325000 
462.000000	217.968000 
462.500000	215.284000 
463.000000	208.555000 
463.500000	201.654000 
464.000000	194.488000 
464.500000	185.336000 
465.000000	174.875000 
465.500000	164.216000 
466.000000	150.214000 
466.500000	143.524000 
467.000000	131.690000 
467.500000	121.842000 
468.000000	106.820000 
468.500000	99.296000  
469.000000	88.755000  
469.500000	79.738000  
470.000000	69.313999  
470.500000	60.524000  
471.000000	52.197000  
471.500000	47.857000  
472.000000	40.219000  
472.500000	34.653000  
473.000000	28.438000  
473.500000	24.552000  
474.000000	20.484000  
474.500000	17.422000  
475.000000	14.110000  
475.500000	11.774000  
476.000000	9.247999   
476.500000	7.882000   
477.000000	6.371000   
477.500000	4.906000   
478.000000	4.271000   
478.500000	3.584000   
479.000000	2.826000   
479.500000	2.531000   
480.000000	2.171000   
480.500000	2.093000   
481.000000	1.980000   
481.500000	1.912000   
482.000000	1.797000   
482.500000	1.695000   
483.000000	1.913000   
483.500000	1.991000   
484.000000	1.960000   
484.500000	1.827000   
485.000000	2.155000   
485.500000	2.331000   
486.000000	2.478000   
486.500000	2.678000   
487.000000	3.245000   
487.500000	3.109000   
488.000000	3.668000   
488.500000	4.064000   
489.000000	4.309000   
489.500000	4.907000   
490.000000	5.129000   
490.500000	5.223000   
491.000000	5.718000   
491.500000	6.601000   
492.000000	6.722000   
492.500000	6.995000   
493.000000	7.159000   
493.500000	8.178000   
494.000000	9.119000   
494.500000	9.295000   
495.000000	9.494999   
495.500000	8.878000   
496.000000	9.510999   
496.500000	10.384000  
497.000000	10.756000  
497.500000	11.328000  
498.000000	10.493000  
498.500000	10.631000  
499.000000	10.419000  
499.500000	10.441000  
500.000000	11.175000  
500.500000	10.769000  
501.000000	10.087000  
501.500000	8.866000   
502.000000	9.047000   
502.500000	9.510999   
503.000000	8.460000   
503.500000	7.958000   
504.000000	8.195000   
504.500000	7.207000   
505.000000	7.260000   
505.500000	6.631000   
506.000000	6.198000   
506.500000	5.791000   
507.000000	5.372000   
507.500000	4.937000   
508.000000	4.399000   
508.500000	4.071000   
509.000000	3.650000   
509.500000	3.452000   
510.000000	3.527000   
510.500000	3.181000   
511.000000	2.404000   
511.500000	2.304000   
512.000000	1.974000   
512.500000	1.999000   
513.000000	1.745000   
513.500000	1.566000   
514.000000	1.409000   
514.500000	1.291000   
515.000000	1.145000   
515.500000	1.067000   
516.000000	0.911000   
516.500000	0.772000   
517.000000	0.892000   
517.500000	0.640000   
518.000000	0.780000   
518.500000	0.672000   
519.000000	0.613000   
519.500000	0.506000   
520.000000	0.500000   
520.500000	0.388000   
521.000000	0.422000   
521.500000	0.475000   
522.000000	0.413000   
522.500000	0.437000   
523.000000	0.366000   
523.500000	0.327000   
524.000000	0.393000   
524.500000	0.390000   
525.000000	0.421000   
525.500000	0.461000   
526.000000	0.415000   
526.500000	0.497000   
527.000000	0.596000   
527.500000	0.477000   
528.000000	0.521000   
528.500000	0.672000   
529.000000	0.671000   
529.500000	0.716000   
530.000000	0.782000   
530.500000	0.867000   
531.000000	0.852000   
531.500000	0.891000   
532.000000	1.165000   
532.500000	1.112000   
533.000000	1.161000   
533.500000	1.329000   
534.000000	1.373000   
534.500000	1.318000   
535.000000	1.274000   
535.500000	1.528000   
536.000000	1.780000   
536.500000	1.757000   
537.000000	1.850000   
537.500000	1.961000   
538.000000	1.971000   
538.500000	2.041000   
539.000000	2.396000   
539.500000	2.583000   
540.000000	2.551000   
540.500000	2.708000   
541.000000	2.851000   
541.500000	2.802000   
542.000000	2.892000   
542.500000	3.027000   
543.000000	3.269000   
543.500000	3.172000   
544.000000	3.129000   
544.500000	2.919000   
545.000000	3.080000   
545.500000	3.391000   
546.000000	3.237000   
546.500000	3.276000   
547.000000	3.042000   
547.500000	3.162000   
548.000000	3.255000   
548.500000	3.244000   

