PE FL                   SPECTRUM    ASCII       PEDS        1.60        
  -1
017CF9~1.SP
19/01/24
10:36:10.00
19/01/24
10:36:10.00


548.500000
1









LS45
390.00
10.00
10.00
SCAN
1
16
100
100
0
600
0
1
0
1
7
ON
435 365 
0 0 0
#HDR
-1
-1
#GR
NM
INT 
0.00002384185791015625
0.0
230.000000
0.500000
638
8
394.643000
0.030000
#DATA
230.000000	0.116000   
230.500000	0.090000   
231.000000	0.084000   
231.500000	0.070000   
232.000000	0.053000   
232.500000	0.083000   
233.000000	0.050000   
233.500000	0.080000   
234.000000	0.041000   
234.500000	0.058000   
235.000000	0.073000   
235.500000	0.049000   
236.000000	0.043000   
236.500000	0.110000   
237.000000	0.087999   
237.500000	0.070000   
238.000000	0.041000   
238.500000	0.043000   
239.000000	0.057000   
239.500000	0.060000   
240.000000	0.054000   
240.500000	0.044000   
241.000000	0.039000   
241.500000	0.049000   
242.000000	0.065000   
242.500000	0.038000   
243.000000	0.099000   
243.500000	0.094000   
244.000000	0.070000   
244.500000	0.046000   
245.000000	0.078000   
245.500000	0.106000   
246.000000	0.077000   
246.500000	0.107000   
247.000000	0.049000   
247.500000	0.083000   
248.000000	0.080000   
248.500000	0.104000   
249.000000	0.171000   
249.500000	0.070000   
250.000000	0.079000   
250.500000	0.127000   
251.000000	0.068000   
251.500000	0.142000   
252.000000	0.115000   
252.500000	0.106000   
253.000000	0.109000   
253.500000	0.071999   
254.000000	0.030000   
254.500000	0.057000   
255.000000	0.120000   
255.500000	0.117000   
256.000000	0.078000   
256.500000	0.079000   
257.000000	0.074000   
257.500000	0.146000   
258.000000	0.158000   
258.500000	0.114000   
259.000000	0.127000   
259.500000	0.101000   
260.000000	0.100000   
260.500000	0.064000   
261.000000	0.038000   
261.500000	0.070999   
262.000000	0.121000   
262.500000	0.146000   
263.000000	0.081000   
263.500000	0.095000   
264.000000	0.111000   
264.500000	0.118000   
265.000000	0.126000   
265.500000	0.129000   
266.000000	0.093000   
266.500000	0.059000   
267.000000	0.055000   
267.500000	0.089000   
268.000000	0.074000   
268.500000	0.070999   
269.000000	0.104000   
269.500000	0.120000   
270.000000	0.096000   
270.500000	0.106000   
271.000000	0.087999   
271.500000	0.154000   
272.000000	0.151000   
272.500000	0.121000   
273.000000	0.139000   
273.500000	0.137000   
274.000000	0.110000   
274.500000	0.127000   
275.000000	0.170000   
275.500000	0.144000   
276.000000	0.147000   
276.500000	0.087999   
277.000000	0.147000   
277.500000	0.172000   
278.000000	0.160000   
278.500000	0.142000   
279.000000	0.096000   
279.500000	0.160000   
280.000000	0.211000   
280.500000	0.168000   
281.000000	0.131000   
281.500000	0.103000   
282.000000	0.111000   
282.500000	0.159000   
283.000000	0.107000   
283.500000	0.168000   
284.000000	0.208000   
284.500000	0.171000   
285.000000	0.159000   
285.500000	0.187000   
286.000000	0.194000   
286.500000	0.211000   
287.000000	0.165000   
287.500000	0.187000   
288.000000	0.213000   
288.500000	0.188000   
289.000000	0.165000   
289.500000	0.218000   
290.000000	0.226000   
290.500000	0.205000   
291.000000	0.218000   
291.500000	0.165000   
292.000000	0.210000   
292.500000	0.178000   
293.000000	0.225000   
293.500000	0.278000   
294.000000	0.210000   
294.500000	0.261000   
295.000000	0.261000   
295.500000	0.225000   
296.000000	0.190000   
296.500000	0.255000   
297.000000	0.177000   
297.500000	0.122000   
298.000000	0.230000   
298.500000	0.250000   
299.000000	0.280000   
299.500000	0.271000   
300.000000	0.244000   
300.500000	0.212000   
301.000000	0.208000   
301.500000	0.177000   
302.000000	0.247000   
302.500000	0.214000   
303.000000	0.283000   
303.500000	0.199000   
304.000000	0.205000   
304.500000	0.245000   
305.000000	0.295000   
305.500000	0.248000   
306.000000	0.290000   
306.500000	0.312000   
307.000000	0.279000   
307.500000	0.301000   
308.000000	0.354000   
308.500000	0.278000   
309.000000	0.269000   
309.500000	0.246000   
310.000000	0.243000   
310.500000	0.198000   
311.000000	0.270000   
311.500000	0.335000   
312.000000	0.208000   
312.500000	0.239000   
313.000000	0.222000   
313.500000	0.261000   
314.000000	0.209000   
314.500000	0.338000   
315.000000	0.378000   
315.500000	0.240000   
316.000000	0.275000   
316.500000	0.387000   
317.000000	0.358000   
317.500000	0.319000   
318.000000	0.294000   
318.500000	0.238000   
319.000000	0.295000   
319.500000	0.350000   
320.000000	0.306000   
320.500000	0.274000   
321.000000	0.351000   
321.500000	0.275000   
322.000000	0.398000   
322.500000	0.285000   
323.000000	0.336000   
323.500000	0.301000   
324.000000	0.299000   
324.500000	0.313000   
325.000000	0.382000   
325.500000	0.298000   
326.000000	0.244000   
326.500000	0.379000   
327.000000	0.319000   
327.500000	0.361000   
328.000000	0.418000   
328.500000	0.309000   
329.000000	0.343000   
329.500000	0.424000   
330.000000	0.381000   
330.500000	0.427000   
331.000000	0.374000   
331.500000	0.425000   
332.000000	0.439000   
332.500000	0.356000   
333.000000	0.489000   
333.500000	0.423000   
334.000000	0.377000   
334.500000	0.369000   
335.000000	0.469000   
335.500000	0.415000   
336.000000	0.444000   
336.500000	0.435000   
337.000000	0.506000   
337.500000	0.496000   
338.000000	0.442000   
338.500000	0.513000   
339.000000	0.556000   
339.500000	0.685000   
340.000000	0.543000   
340.500000	0.573000   
341.000000	0.457000   
341.500000	0.510000   
342.000000	0.490000   
342.500000	0.581000   
343.000000	0.608000   
343.500000	0.653000   
344.000000	0.674000   
344.500000	0.639000   
345.000000	0.683000   
345.500000	0.641000   
346.000000	0.600000   
346.500000	0.560000   
347.000000	0.585000   
347.500000	0.776000   
348.000000	0.733000   
348.500000	0.646000   
349.000000	0.858000   
349.500000	0.692999   
350.000000	0.852000   
350.500000	0.823000   
351.000000	0.894000   
351.500000	0.872000   
352.000000	0.865000   
352.500000	1.005000   
353.000000	0.942999   
353.500000	0.824000   
354.000000	0.876000   
354.500000	0.925000   
355.000000	1.186000   
355.500000	1.056000   
356.000000	0.993000   
356.500000	1.185000   
357.000000	1.261000   
357.500000	1.145000   
358.000000	1.225000   
358.500000	1.118000   
359.000000	1.177000   
359.500000	1.186000   
360.000000	1.321000   
360.500000	1.200000   
361.000000	1.320000   
361.500000	1.458000   
362.000000	1.277000   
362.500000	1.354000   
363.000000	1.359000   
363.500000	1.534000   
364.000000	1.483000   
364.500000	1.663000   
365.000000	1.727000   
365.500000	1.947000   
366.000000	1.936000   
366.500000	2.183000   
367.000000	2.815000   
367.500000	3.670000   
368.000000	4.381000   
368.500000	5.476000   
369.000000	7.523000   
369.500000	9.744000   
370.000000	12.821000  
370.500000	15.616000  
371.000000	19.444000  
371.500000	23.420000  
372.000000	29.708000  
372.500000	35.684000  
373.000000	42.270000  
373.500000	52.121000  
374.000000	62.494000  
374.500000	71.613000  
375.000000	84.111999  
375.500000	96.882000  
376.000000	110.434000 
376.500000	124.733000 
377.000000	142.253000 
377.500000	160.941000 
378.000000	176.768000 
378.500000	196.220000 
379.000000	213.883000 
379.500000	233.355000 
380.000000	249.092000 
380.500000	269.012000 
381.000000	283.201000 
381.500000	301.086000 
382.000000	317.224000 
382.500000	331.617000 
383.000000	346.895000 
383.500000	357.470000 
384.000000	367.974000 
384.500000	377.060000 
385.000000	383.384000 
385.500000	388.849000 
386.000000	393.909000 
386.500000	394.643000 
387.000000	391.821000 
387.500000	386.082000 
388.000000	381.312000 
388.500000	378.368000 
389.000000	364.410000 
389.500000	355.693000 
390.000000	340.806000 
390.500000	328.718000 
391.000000	312.526000 
391.500000	297.502000 
392.000000	278.767000 
392.500000	260.339000 
393.000000	242.345000 
393.500000	220.785000 
394.000000	199.758000 
394.500000	181.469000 
395.000000	165.881000 
395.500000	146.033000 
396.000000	133.199000 
396.500000	113.667000 
397.000000	102.452000 
397.500000	88.575999  
398.000000	78.614999  
398.500000	65.415000  
399.000000	56.780000  
399.500000	46.955000  
400.000000	39.175000  
400.500000	32.860000  
401.000000	26.142000  
401.500000	21.382000  
402.000000	17.160000  
402.500000	14.843000  
403.000000	11.922000  
403.500000	9.909000   
404.000000	8.321999   
404.500000	6.760000   
405.000000	5.987000   
405.500000	4.997000   
406.000000	4.116000   
406.500000	3.897000   
407.000000	3.957000   
407.500000	3.466000   
408.000000	3.480000   
408.500000	3.285000   
409.000000	2.995000   
409.500000	3.047000   
410.000000	3.381000   
410.500000	3.280000   
411.000000	3.452000   
411.500000	3.034000   
412.000000	2.934000   
412.500000	3.077000   
413.000000	3.067000   
413.500000	2.929000   
414.000000	2.911000   
414.500000	2.920000   
415.000000	3.022000   
415.500000	2.892000   
416.000000	2.819000   
416.500000	2.902000   
417.000000	2.966000   
417.500000	2.685000   
418.000000	2.675000   
418.500000	2.769000   
419.000000	2.469000   
419.500000	2.598000   
420.000000	2.429000   
420.500000	2.535000   
421.000000	2.602000   
421.500000	2.581000   
422.000000	2.173000   
422.500000	2.227000   
423.000000	2.539000   
423.500000	2.627000   
424.000000	2.531000   
424.500000	2.471000   
425.000000	2.517000   
425.500000	2.688000   
426.000000	3.097000   
426.500000	3.146000   
427.000000	3.165000   
427.500000	3.605000   
428.000000	4.216000   
428.500000	4.568000   
429.000000	5.303000   
429.500000	5.434000   
430.000000	5.709000   
430.500000	6.563000   
431.000000	7.260000   
431.500000	8.362000   
432.000000	8.784000   
432.500000	9.601000   
433.000000	10.358000  
433.500000	11.425000  
434.000000	12.624000  
434.500000	13.140000  
435.000000	14.277000  
435.500000	15.615000  
436.000000	16.653000  
436.500000	18.239000  
437.000000	18.987000  
437.500000	20.036000  
438.000000	21.377000  
438.500000	23.040000  
439.000000	23.837000  
439.500000	25.024000  
440.000000	26.269000  
440.500000	26.222000  
441.000000	27.486000  
441.500000	27.980000  
442.000000	27.620000  
442.500000	28.552000  
443.000000	29.607000  
443.500000	30.170000  
444.000000	30.775000  
444.500000	31.438000  
445.000000	31.207000  
445.500000	30.638000  
446.000000	30.158000  
446.500000	29.630000  
447.000000	29.221000  
447.500000	27.927000  
448.000000	27.050000  
448.500000	26.724000  
449.000000	25.870000  
449.500000	24.709000  
450.000000	24.106000  
450.500000	23.325000  
451.000000	22.171000  
451.500000	21.284000  
452.000000	20.653000  
452.500000	18.441000  
453.000000	17.732000  
453.500000	16.288000  
454.000000	15.146000  
454.500000	14.410000  
455.000000	13.199000  
455.500000	12.249000  
456.000000	11.152000  
456.500000	9.916000   
457.000000	9.271000   
457.500000	8.233000   
458.000000	7.153000   
458.500000	7.075000   
459.000000	6.666000   
459.500000	5.924000   
460.000000	4.881000   
460.500000	4.396000   
461.000000	3.946000   
461.500000	3.518000   
462.000000	3.259000   
462.500000	2.967000   
463.000000	2.773000   
463.500000	2.287000   
464.000000	1.774000   
464.500000	1.957000   
465.000000	1.633000   
465.500000	1.409000   
466.000000	1.271000   
466.500000	1.179000   
467.000000	1.230000   
467.500000	1.253000   
468.000000	1.221000   
468.500000	1.009000   
469.000000	0.934000   
469.500000	0.971000   
470.000000	0.873000   
470.500000	0.823000   
471.000000	0.771000   
471.500000	0.702000   
472.000000	0.727000   
472.500000	0.588000   
473.000000	0.709000   
473.500000	0.681000   
474.000000	0.602000   
474.500000	0.643000   
475.000000	0.559000   
475.500000	0.563999   
476.000000	0.551000   
476.500000	0.433000   
477.000000	0.529000   
477.500000	0.688999   
478.000000	0.626000   
478.500000	0.601000   
479.000000	0.564999   
479.500000	0.592000   
480.000000	0.526000   
480.500000	0.517000   
481.000000	0.421000   
481.500000	0.521000   
482.000000	0.613000   
482.500000	0.597000   
483.000000	0.508000   
483.500000	0.425000   
484.000000	0.460000   
484.500000	0.527000   
485.000000	0.558000   
485.500000	0.479000   
486.000000	0.355000   
486.500000	0.560000   
487.000000	0.570000   
487.500000	0.678000   
488.000000	0.401000   
488.500000	0.472000   
489.000000	0.530000   
489.500000	0.486000   
490.000000	0.733000   
490.500000	0.561000   
491.000000	0.513000   
491.500000	0.548000   
492.000000	0.609000   
492.500000	0.502000   
493.000000	0.449000   
493.500000	0.537000   
494.000000	0.405000   
494.500000	0.662000   
495.000000	0.519000   
495.500000	0.521000   
496.000000	0.466000   
496.500000	0.447000   
497.000000	0.522000   
497.500000	0.547000   
498.000000	0.469000   
498.500000	0.437000   
499.000000	0.520000   
499.500000	0.485000   
500.000000	0.542000   
500.500000	0.485000   
501.000000	0.433000   
501.500000	0.446000   
502.000000	0.427000   
502.500000	0.422000   
503.000000	0.426000   
503.500000	0.431000   
504.000000	0.303000   
504.500000	0.358000   
505.000000	0.386000   
505.500000	0.464000   
506.000000	0.417000   
506.500000	0.449000   
507.000000	0.356000   
507.500000	0.279000   
508.000000	0.368000   
508.500000	0.324000   
509.000000	0.407000   
509.500000	0.341000   
510.000000	0.425000   
510.500000	0.436000   
511.000000	0.292000   
511.500000	0.353000   
512.000000	0.450000   
512.500000	0.372000   
513.000000	0.282000   
513.500000	0.381000   
514.000000	0.420000   
514.500000	0.285000   
515.000000	0.383000   
515.500000	0.404000   
516.000000	0.436000   
516.500000	0.347000   
517.000000	0.392000   
517.500000	0.416000   
518.000000	0.396000   
518.500000	0.313000   
519.000000	0.294000   
519.500000	0.325000   
520.000000	0.355000   
520.500000	0.325000   
521.000000	0.399000   
521.500000	0.400000   
522.000000	0.412000   
522.500000	0.422000   
523.000000	0.317000   
523.500000	0.463000   
524.000000	0.399000   
524.500000	0.374000   
525.000000	0.337000   
525.500000	0.353000   
526.000000	0.313000   
526.500000	0.262000   
527.000000	0.363000   
527.500000	0.406000   
528.000000	0.320000   
528.500000	0.350000   
529.000000	0.341000   
529.500000	0.234000   
530.000000	0.200000   
530.500000	0.305000   
531.000000	0.192000   
531.500000	0.250000   
532.000000	0.280000   
532.500000	0.289000   
533.000000	0.224000   
533.500000	0.271000   
534.000000	0.177000   
534.500000	0.251000   
535.000000	0.310000   
535.500000	0.270000   
536.000000	0.275000   
536.500000	0.190000   
537.000000	0.261000   
537.500000	0.259000   
538.000000	0.240000   
538.500000	0.200000   
539.000000	0.250000   
539.500000	0.306000   
540.000000	0.235000   
540.500000	0.312000   
541.000000	0.241000   
541.500000	0.372000   
542.000000	0.247000   
542.500000	0.278000   
543.000000	0.292000   
543.500000	0.196000   
544.000000	0.275000   
544.500000	0.273000   
545.000000	0.201000   
545.500000	0.285000   
546.000000	0.207000   
546.500000	0.181000   
547.000000	0.277000   
547.500000	0.210000   
548.000000	0.206000   
548.500000	0.177000   

