PE FL                   SPECTRUM    ASCII       PEDS        1.60        
  -1
016CF5~1.SP
19/01/24
10:35:24.00
19/01/24
10:35:24.00


548.500000
1









LS45
385.00
10.00
10.00
SCAN
1
16
100
100
0
600
0
1
0
1
7
ON
435 365 
0 0 0
#HDR
-1
-1
#GR
NM
INT 
0.00002384185791015625
0.0
230.000000
0.500000
638
8
422.548000
0.010000
#DATA
230.000000	0.087999   
230.500000	0.058000   
231.000000	0.057000   
231.500000	0.090000   
232.000000	0.054000   
232.500000	0.029000   
233.000000	0.109000   
233.500000	0.098000   
234.000000	0.041000   
234.500000	0.037000   
235.000000	0.085000   
235.500000	0.057000   
236.000000	0.010000   
236.500000	0.050000   
237.000000	0.086999   
237.500000	0.061000   
238.000000	0.083000   
238.500000	0.081000   
239.000000	0.096000   
239.500000	0.131000   
240.000000	0.142000   
240.500000	0.085999   
241.000000	0.102000   
241.500000	0.101000   
242.000000	0.097000   
242.500000	0.087999   
243.000000	0.086999   
243.500000	0.050000   
244.000000	0.069000   
244.500000	0.110000   
245.000000	0.097000   
245.500000	0.085999   
246.000000	0.075000   
246.500000	0.073000   
247.000000	0.114000   
247.500000	0.103000   
248.000000	0.115000   
248.500000	0.126000   
249.000000	0.059000   
249.500000	0.076000   
250.000000	0.126000   
250.500000	0.119000   
251.000000	0.090000   
251.500000	0.085999   
252.000000	0.129000   
252.500000	0.098000   
253.000000	0.074000   
253.500000	0.092000   
254.000000	0.192000   
254.500000	0.137000   
255.000000	0.123000   
255.500000	0.122000   
256.000000	0.133000   
256.500000	0.101000   
257.000000	0.112000   
257.500000	0.092000   
258.000000	0.174000   
258.500000	0.129000   
259.000000	0.099000   
259.500000	0.149000   
260.000000	0.129000   
260.500000	0.085000   
261.000000	0.085999   
261.500000	0.128000   
262.000000	0.106000   
262.500000	0.120000   
263.000000	0.099000   
263.500000	0.133000   
264.000000	0.138000   
264.500000	0.080000   
265.000000	0.145000   
265.500000	0.116000   
266.000000	0.076000   
266.500000	0.170000   
267.000000	0.107000   
267.500000	0.124000   
268.000000	0.119000   
268.500000	0.130000   
269.000000	0.175000   
269.500000	0.171000   
270.000000	0.112000   
270.500000	0.133000   
271.000000	0.161000   
271.500000	0.121000   
272.000000	0.114000   
272.500000	0.127000   
273.000000	0.140000   
273.500000	0.138000   
274.000000	0.065000   
274.500000	0.094000   
275.000000	0.156000   
275.500000	0.152000   
276.000000	0.172000   
276.500000	0.127000   
277.000000	0.159000   
277.500000	0.113000   
278.000000	0.129000   
278.500000	0.180000   
279.000000	0.158000   
279.500000	0.137000   
280.000000	0.126000   
280.500000	0.148000   
281.000000	0.115000   
281.500000	0.125000   
282.000000	0.097000   
282.500000	0.143000   
283.000000	0.192000   
283.500000	0.177000   
284.000000	0.213000   
284.500000	0.212000   
285.000000	0.302000   
285.500000	0.157000   
286.000000	0.279000   
286.500000	0.187000   
287.000000	0.217000   
287.500000	0.157000   
288.000000	0.230000   
288.500000	0.165000   
289.000000	0.194000   
289.500000	0.176000   
290.000000	0.228000   
290.500000	0.291000   
291.000000	0.288000   
291.500000	0.237000   
292.000000	0.188000   
292.500000	0.150000   
293.000000	0.188000   
293.500000	0.218000   
294.000000	0.336000   
294.500000	0.297000   
295.000000	0.247000   
295.500000	0.183000   
296.000000	0.184000   
296.500000	0.207000   
297.000000	0.242000   
297.500000	0.305000   
298.000000	0.291000   
298.500000	0.275000   
299.000000	0.274000   
299.500000	0.163000   
300.000000	0.216000   
300.500000	0.339000   
301.000000	0.282000   
301.500000	0.236000   
302.000000	0.283000   
302.500000	0.224000   
303.000000	0.211000   
303.500000	0.289000   
304.000000	0.271000   
304.500000	0.249000   
305.000000	0.207000   
305.500000	0.264000   
306.000000	0.231000   
306.500000	0.372000   
307.000000	0.360000   
307.500000	0.257000   
308.000000	0.353000   
308.500000	0.374000   
309.000000	0.278000   
309.500000	0.349000   
310.000000	0.384000   
310.500000	0.382000   
311.000000	0.242000   
311.500000	0.382000   
312.000000	0.323000   
312.500000	0.272000   
313.000000	0.276000   
313.500000	0.294000   
314.000000	0.316000   
314.500000	0.364000   
315.000000	0.349000   
315.500000	0.340000   
316.000000	0.492000   
316.500000	0.307000   
317.000000	0.281000   
317.500000	0.230000   
318.000000	0.216000   
318.500000	0.332000   
319.000000	0.317000   
319.500000	0.283000   
320.000000	0.284000   
320.500000	0.315000   
321.000000	0.344000   
321.500000	0.356000   
322.000000	0.345000   
322.500000	0.367000   
323.000000	0.431000   
323.500000	0.429000   
324.000000	0.484000   
324.500000	0.531000   
325.000000	0.374000   
325.500000	0.470000   
326.000000	0.434000   
326.500000	0.368000   
327.000000	0.455000   
327.500000	0.402000   
328.000000	0.445000   
328.500000	0.420000   
329.000000	0.506000   
329.500000	0.468000   
330.000000	0.503000   
330.500000	0.486000   
331.000000	0.507000   
331.500000	0.465000   
332.000000	0.522000   
332.500000	0.482000   
333.000000	0.590000   
333.500000	0.594000   
334.000000	0.636000   
334.500000	0.543000   
335.000000	0.489000   
335.500000	0.588000   
336.000000	0.530000   
336.500000	0.494000   
337.000000	0.616000   
337.500000	0.612000   
338.000000	0.625000   
338.500000	0.662000   
339.000000	0.648000   
339.500000	0.645000   
340.000000	0.675000   
340.500000	0.755000   
341.000000	0.825000   
341.500000	0.653000   
342.000000	0.643000   
342.500000	0.814999   
343.000000	0.753000   
343.500000	0.635000   
344.000000	0.887000   
344.500000	0.747000   
345.000000	0.840000   
345.500000	0.819000   
346.000000	0.773000   
346.500000	0.801000   
347.000000	0.859000   
347.500000	0.883000   
348.000000	0.970000   
348.500000	1.066000   
349.000000	0.932000   
349.500000	0.952000   
350.000000	0.862000   
350.500000	1.033000   
351.000000	1.045000   
351.500000	1.118000   
352.000000	1.129000   
352.500000	1.166000   
353.000000	1.175000   
353.500000	1.275000   
354.000000	1.303000   
354.500000	1.354000   
355.000000	1.328000   
355.500000	1.398000   
356.000000	1.562000   
356.500000	1.530000   
357.000000	1.414000   
357.500000	1.586000   
358.000000	1.671000   
358.500000	1.544000   
359.000000	1.588000   
359.500000	1.657000   
360.000000	2.041000   
360.500000	2.270000   
361.000000	2.216000   
361.500000	2.685000   
362.000000	3.180000   
362.500000	3.648000   
363.000000	4.758000   
363.500000	6.280000   
364.000000	7.741000   
364.500000	9.224000   
365.000000	11.894000  
365.500000	15.443000  
366.000000	19.204000  
366.500000	23.998000  
367.000000	29.985000  
367.500000	36.144000  
368.000000	44.672000  
368.500000	52.420000  
369.000000	64.162000  
369.500000	73.494000  
370.000000	87.250000  
370.500000	98.432000  
371.000000	114.481000 
371.500000	129.943000 
372.000000	146.362000 
372.500000	162.944000 
373.000000	181.135000 
373.500000	202.615000 
374.000000	227.244000 
374.500000	244.242000 
375.000000	262.925000 
375.500000	281.646000 
376.000000	299.196000 
376.500000	317.346000 
377.000000	334.599000 
377.500000	355.176000 
378.000000	367.866000 
378.500000	383.657000 
379.000000	391.993000 
379.500000	405.259000 
380.000000	412.076000 
380.500000	414.436000 
381.000000	417.249000 
381.500000	420.988000 
382.000000	422.548000 
382.500000	419.504000 
383.000000	410.360000 
383.500000	406.136000 
384.000000	394.802000 
384.500000	381.796000 
385.000000	365.145000 
385.500000	350.632000 
386.000000	334.150000 
386.500000	317.460000 
387.000000	299.390000 
387.500000	283.287000 
388.000000	260.655000 
388.500000	242.774000 
389.000000	220.420000 
389.500000	201.870000 
390.000000	181.578000 
390.500000	163.157000 
391.000000	144.545000 
391.500000	130.136000 
392.000000	114.675000 
392.500000	98.003000  
393.000000	85.627000  
393.500000	72.272000  
394.000000	61.886000  
394.500000	50.939000  
395.000000	43.628000  
395.500000	35.146000  
396.000000	29.987000  
396.500000	24.142000  
397.000000	19.804000  
397.500000	15.583000  
398.000000	13.334000  
398.500000	10.971000  
399.000000	8.193000   
399.500000	7.279000   
400.000000	6.647000   
400.500000	5.543000   
401.000000	4.852000   
401.500000	4.588000   
402.000000	4.281000   
402.500000	3.674000   
403.000000	3.680000   
403.500000	3.569000   
404.000000	3.495000   
404.500000	3.477000   
405.000000	3.347000   
405.500000	3.480000   
406.000000	3.082000   
406.500000	3.384000   
407.000000	3.172000   
407.500000	3.094000   
408.000000	3.043000   
408.500000	2.797000   
409.000000	3.052000   
409.500000	3.111000   
410.000000	3.010000   
410.500000	2.910000   
411.000000	2.687000   
411.500000	2.692000   
412.000000	2.886000   
412.500000	2.580000   
413.000000	2.680000   
413.500000	2.513000   
414.000000	2.490000   
414.500000	2.641000   
415.000000	2.419000   
415.500000	2.396000   
416.000000	2.483000   
416.500000	2.379000   
417.000000	2.409000   
417.500000	2.545000   
418.000000	2.690000   
418.500000	2.950000   
419.000000	3.056000   
419.500000	3.234000   
420.000000	3.694000   
420.500000	3.671000   
421.000000	3.910000   
421.500000	4.295000   
422.000000	4.743000   
422.500000	5.474000   
423.000000	5.681000   
423.500000	6.167000   
424.000000	6.760000   
424.500000	7.559000   
425.000000	8.073000   
425.500000	9.662000   
426.000000	9.941000   
426.500000	11.742000  
427.000000	12.405000  
427.500000	13.387000  
428.000000	14.817000  
428.500000	16.312000  
429.000000	17.482000  
429.500000	18.472000  
430.000000	19.613000  
430.500000	21.322000  
431.000000	23.058000  
431.500000	24.170000  
432.000000	25.268000  
432.500000	26.212000  
433.000000	27.617000  
433.500000	28.376000  
434.000000	29.851000  
434.500000	30.625000  
435.000000	31.387000  
435.500000	31.124000  
436.000000	32.311000  
436.500000	32.190000  
437.000000	32.659000  
437.500000	33.440000  
438.000000	33.507000  
438.500000	33.709000  
439.000000	33.818000  
439.500000	34.015000  
440.000000	33.760000  
440.500000	33.138000  
441.000000	32.616000  
441.500000	30.888000  
442.000000	30.056000  
442.500000	30.245000  
443.000000	28.833000  
443.500000	27.809000  
444.000000	25.891000  
444.500000	24.310000  
445.000000	24.613000  
445.500000	22.487000  
446.000000	21.416000  
446.500000	18.797000  
447.000000	17.588000  
447.500000	16.239000  
448.000000	16.196000  
448.500000	14.305000  
449.000000	13.303000  
449.500000	11.721000  
450.000000	11.179000  
450.500000	9.534000   
451.000000	8.887000   
451.500000	7.874000   
452.000000	7.897000   
452.500000	6.734000   
453.000000	6.186000   
453.500000	5.081000   
454.000000	5.062000   
454.500000	4.221000   
455.000000	4.038000   
455.500000	3.689000   
456.000000	3.255000   
456.500000	2.890000   
457.000000	2.407000   
457.500000	2.515000   
458.000000	2.000000   
458.500000	1.998000   
459.000000	1.980000   
459.500000	1.711000   
460.000000	1.345000   
460.500000	1.424000   
461.000000	1.341000   
461.500000	1.103000   
462.000000	1.173000   
462.500000	1.203000   
463.000000	0.981000   
463.500000	1.107000   
464.000000	0.933000   
464.500000	0.904000   
465.000000	0.819000   
465.500000	1.019000   
466.000000	0.958000   
466.500000	0.882000   
467.000000	0.735000   
467.500000	0.750000   
468.000000	0.700000   
468.500000	0.748000   
469.000000	0.769000   
469.500000	0.659000   
470.000000	0.671000   
470.500000	0.633000   
471.000000	0.623000   
471.500000	0.629000   
472.000000	0.747000   
472.500000	0.557000   
473.000000	0.553000   
473.500000	0.647000   
474.000000	0.713000   
474.500000	0.588000   
475.000000	0.621000   
475.500000	0.546000   
476.000000	0.646000   
476.500000	0.581000   
477.000000	0.487000   
477.500000	0.575000   
478.000000	0.601000   
478.500000	0.612000   
479.000000	0.592000   
479.500000	0.627000   
480.000000	0.639000   
480.500000	0.678000   
481.000000	0.602000   
481.500000	0.434000   
482.000000	0.524000   
482.500000	0.543000   
483.000000	0.509000   
483.500000	0.554000   
484.000000	0.463000   
484.500000	0.539000   
485.000000	0.558000   
485.500000	0.451000   
486.000000	0.471000   
486.500000	0.549000   
487.000000	0.653000   
487.500000	0.497000   
488.000000	0.553000   
488.500000	0.520000   
489.000000	0.519000   
489.500000	0.539000   
490.000000	0.604000   
490.500000	0.592000   
491.000000	0.542000   
491.500000	0.538000   
492.000000	0.528000   
492.500000	0.610000   
493.000000	0.585000   
493.500000	0.580000   
494.000000	0.431000   
494.500000	0.566999   
495.000000	0.436000   
495.500000	0.599000   
496.000000	0.553000   
496.500000	0.567999   
497.000000	0.547000   
497.500000	0.579000   
498.000000	0.569000   
498.500000	0.402000   
499.000000	0.456000   
499.500000	0.457000   
500.000000	0.484000   
500.500000	0.468000   
501.000000	0.506000   
501.500000	0.352000   
502.000000	0.405000   
502.500000	0.485000   
503.000000	0.580000   
503.500000	0.424000   
504.000000	0.503000   
504.500000	0.452000   
505.000000	0.458000   
505.500000	0.448000   
506.000000	0.373000   
506.500000	0.348000   
507.000000	0.267000   
507.500000	0.420000   
508.000000	0.290000   
508.500000	0.368000   
509.000000	0.297000   
509.500000	0.356000   
510.000000	0.387000   
510.500000	0.372000   
511.000000	0.337000   
511.500000	0.361000   
512.000000	0.335000   
512.500000	0.356000   
513.000000	0.355000   
513.500000	0.353000   
514.000000	0.468000   
514.500000	0.381000   
515.000000	0.404000   
515.500000	0.346000   
516.000000	0.437000   
516.500000	0.433000   
517.000000	0.519000   
517.500000	0.435000   
518.000000	0.492000   
518.500000	0.379000   
519.000000	0.465000   
519.500000	0.433000   
520.000000	0.471000   
520.500000	0.411000   
521.000000	0.380000   
521.500000	0.337000   
522.000000	0.395000   
522.500000	0.425000   
523.000000	0.368000   
523.500000	0.430000   
524.000000	0.479000   
524.500000	0.393000   
525.000000	0.386000   
525.500000	0.360000   
526.000000	0.488000   
526.500000	0.418000   
527.000000	0.221000   
527.500000	0.267000   
528.000000	0.353000   
528.500000	0.327000   
529.000000	0.357000   
529.500000	0.239000   
530.000000	0.198000   
530.500000	0.296000   
531.000000	0.276000   
531.500000	0.318000   
532.000000	0.373000   
532.500000	0.268000   
533.000000	0.310000   
533.500000	0.316000   
534.000000	0.227000   
534.500000	0.282000   
535.000000	0.235000   
535.500000	0.287000   
536.000000	0.277000   
536.500000	0.310000   
537.000000	0.358000   
537.500000	0.306000   
538.000000	0.301000   
538.500000	0.252000   
539.000000	0.214000   
539.500000	0.249000   
540.000000	0.237000   
540.500000	0.220000   
541.000000	0.289000   
541.500000	0.259000   
542.000000	0.164000   
542.500000	0.255000   
543.000000	0.256000   
543.500000	0.300000   
544.000000	0.311000   
544.500000	0.300000   
545.000000	0.252000   
545.500000	0.226000   
546.000000	0.263000   
546.500000	0.263000   
547.000000	0.278000   
547.500000	0.243000   
548.000000	0.264000   
548.500000	0.248000   

