PE FL                   SPECTRUM    ASCII       PEDS        1.60        
  -1
0124DI~1.SP
19/01/24
10:31:39.00
19/01/24
10:31:39.00


548.500000
1









LS45
360.00
10.00
10.00
SCAN
1
16
100
100
0
600
0
1
0
1
7
ON
435 365 
0 0 0
#HDR
-1
-1
#GR
NM
INT 
0.00002384185791015625
0.0
230.000000
0.500000
638
8
484.859000
0.066000
#DATA
230.000000	0.179000   
230.500000	0.098000   
231.000000	0.103000   
231.500000	0.098000   
232.000000	0.111000   
232.500000	0.118000   
233.000000	0.161000   
233.500000	0.073000   
234.000000	0.066000   
234.500000	0.125000   
235.000000	0.117000   
235.500000	0.129000   
236.000000	0.102000   
236.500000	0.140000   
237.000000	0.101000   
237.500000	0.131000   
238.000000	0.113000   
238.500000	0.085000   
239.000000	0.110000   
239.500000	0.127000   
240.000000	0.090000   
240.500000	0.120000   
241.000000	0.157000   
241.500000	0.170000   
242.000000	0.148000   
242.500000	0.144000   
243.000000	0.103000   
243.500000	0.150000   
244.000000	0.255000   
244.500000	0.086999   
245.000000	0.083000   
245.500000	0.164000   
246.000000	0.186000   
246.500000	0.235000   
247.000000	0.197000   
247.500000	0.172000   
248.000000	0.121000   
248.500000	0.133000   
249.000000	0.163000   
249.500000	0.113000   
250.000000	0.159000   
250.500000	0.180000   
251.000000	0.146000   
251.500000	0.120000   
252.000000	0.143000   
252.500000	0.111000   
253.000000	0.179000   
253.500000	0.180000   
254.000000	0.185000   
254.500000	0.151000   
255.000000	0.210000   
255.500000	0.271000   
256.000000	0.143000   
256.500000	0.143000   
257.000000	0.174000   
257.500000	0.185000   
258.000000	0.220000   
258.500000	0.136000   
259.000000	0.163000   
259.500000	0.181000   
260.000000	0.215000   
260.500000	0.185000   
261.000000	0.132000   
261.500000	0.097000   
262.000000	0.128000   
262.500000	0.181000   
263.000000	0.174000   
263.500000	0.193000   
264.000000	0.217000   
264.500000	0.164000   
265.000000	0.161000   
265.500000	0.246000   
266.000000	0.246000   
266.500000	0.241000   
267.000000	0.207000   
267.500000	0.138000   
268.000000	0.170000   
268.500000	0.180000   
269.000000	0.191000   
269.500000	0.203000   
270.000000	0.185000   
270.500000	0.107000   
271.000000	0.195000   
271.500000	0.295000   
272.000000	0.186000   
272.500000	0.140000   
273.000000	0.210000   
273.500000	0.301000   
274.000000	0.146000   
274.500000	0.206000   
275.000000	0.179000   
275.500000	0.176000   
276.000000	0.255000   
276.500000	0.249000   
277.000000	0.247000   
277.500000	0.317000   
278.000000	0.270000   
278.500000	0.245000   
279.000000	0.259000   
279.500000	0.293000   
280.000000	0.220000   
280.500000	0.256000   
281.000000	0.293000   
281.500000	0.206000   
282.000000	0.212000   
282.500000	0.185000   
283.000000	0.216000   
283.500000	0.290000   
284.000000	0.318000   
284.500000	0.337000   
285.000000	0.336000   
285.500000	0.231000   
286.000000	0.269000   
286.500000	0.287000   
287.000000	0.292000   
287.500000	0.353000   
288.000000	0.295000   
288.500000	0.277000   
289.000000	0.358000   
289.500000	0.341000   
290.000000	0.233000   
290.500000	0.275000   
291.000000	0.353000   
291.500000	0.265000   
292.000000	0.332000   
292.500000	0.319000   
293.000000	0.270000   
293.500000	0.325000   
294.000000	0.520000   
294.500000	0.416000   
295.000000	0.387000   
295.500000	0.417000   
296.000000	0.324000   
296.500000	0.285000   
297.000000	0.311000   
297.500000	0.416000   
298.000000	0.300000   
298.500000	0.403000   
299.000000	0.391000   
299.500000	0.395000   
300.000000	0.336000   
300.500000	0.454000   
301.000000	0.369000   
301.500000	0.342000   
302.000000	0.449000   
302.500000	0.436000   
303.000000	0.399000   
303.500000	0.472000   
304.000000	0.397000   
304.500000	0.461000   
305.000000	0.549000   
305.500000	0.580000   
306.000000	0.487000   
306.500000	0.601000   
307.000000	0.524000   
307.500000	0.536000   
308.000000	0.475000   
308.500000	0.473000   
309.000000	0.508000   
309.500000	0.602000   
310.000000	0.607000   
310.500000	0.539000   
311.000000	0.576000   
311.500000	0.734000   
312.000000	0.535000   
312.500000	0.638000   
313.000000	0.769000   
313.500000	0.719000   
314.000000	0.645000   
314.500000	0.734000   
315.000000	0.654000   
315.500000	0.734000   
316.000000	0.628000   
316.500000	0.749000   
317.000000	0.914000   
317.500000	0.848000   
318.000000	0.820000   
318.500000	0.762000   
319.000000	0.707000   
319.500000	0.907000   
320.000000	0.897000   
320.500000	0.926000   
321.000000	1.144000   
321.500000	0.971000   
322.000000	1.025000   
322.500000	0.924000   
323.000000	1.303000   
323.500000	1.228000   
324.000000	1.087000   
324.500000	1.149000   
325.000000	1.118000   
325.500000	1.274000   
326.000000	1.294000   
326.500000	1.331000   
327.000000	1.551000   
327.500000	1.333000   
328.000000	1.473000   
328.500000	1.669000   
329.000000	1.559000   
329.500000	1.554000   
330.000000	1.581000   
330.500000	1.678000   
331.000000	1.569000   
331.500000	1.549000   
332.000000	1.756000   
332.500000	2.152000   
333.000000	2.073000   
333.500000	2.001000   
334.000000	2.084000   
334.500000	2.248000   
335.000000	2.260000   
335.500000	2.462000   
336.000000	2.530000   
336.500000	2.781000   
337.000000	3.791000   
337.500000	4.577000   
338.000000	5.215000   
338.500000	6.332000   
339.000000	7.908000   
339.500000	9.875000   
340.000000	12.879000  
340.500000	15.899000  
341.000000	19.700000  
341.500000	25.905000  
342.000000	31.665000  
342.500000	38.323000  
343.000000	46.633000  
343.500000	56.972000  
344.000000	68.947000  
344.500000	79.419000  
345.000000	93.558000  
345.500000	104.906000 
346.000000	123.652000 
346.500000	142.627000 
347.000000	164.052000 
347.500000	182.082000 
348.000000	208.165000 
348.500000	225.478000 
349.000000	250.632000 
349.500000	269.789000 
350.000000	299.098000 
350.500000	324.096000 
351.000000	350.332000 
351.500000	369.102000 
352.000000	391.072000 
352.500000	407.630000 
353.000000	431.742000 
353.500000	441.952000 
354.000000	456.439000 
354.500000	470.332000 
355.000000	478.380000 
355.500000	482.975000 
356.000000	484.825000 
356.500000	484.859000 
357.000000	478.374000 
357.500000	476.575000 
358.000000	466.780000 
358.500000	455.854000 
359.000000	448.651000 
359.500000	432.879000 
360.000000	417.077000 
360.500000	394.125000 
361.000000	375.200000 
361.500000	353.004000 
362.000000	333.600000 
362.500000	308.169000 
363.000000	285.571000 
363.500000	264.798000 
364.000000	244.572000 
364.500000	218.797000 
365.000000	197.961000 
365.500000	177.602000 
366.000000	157.230000 
366.500000	139.362000 
367.000000	118.979000 
367.500000	107.410000 
368.000000	89.803000  
368.500000	79.750000  
369.000000	66.303000  
369.500000	56.941000  
370.000000	45.915000  
370.500000	39.623000  
371.000000	32.095000  
371.500000	27.007000  
372.000000	21.175000  
372.500000	17.527000  
373.000000	14.180000  
373.500000	11.765000  
374.000000	9.317000   
374.500000	8.520000   
375.000000	6.908000   
375.500000	6.477000   
376.000000	6.050000   
376.500000	5.027000   
377.000000	5.141000   
377.500000	4.468000   
378.000000	5.010000   
378.500000	4.668000   
379.000000	4.302000   
379.500000	4.361000   
380.000000	4.020000   
380.500000	4.616000   
381.000000	4.526000   
381.500000	4.412000   
382.000000	4.177000   
382.500000	4.424000   
383.000000	4.201000   
383.500000	3.810000   
384.000000	3.768000   
384.500000	4.064000   
385.000000	3.987000   
385.500000	3.993000   
386.000000	4.379000   
386.500000	4.902000   
387.000000	5.105000   
387.500000	5.397000   
388.000000	5.597000   
388.500000	5.615000   
389.000000	6.526000   
389.500000	7.081000   
390.000000	7.952000   
390.500000	8.529999   
391.000000	9.343000   
391.500000	10.528000  
392.000000	11.414000  
392.500000	12.691000  
393.000000	13.526000  
393.500000	15.726000  
394.000000	16.341000  
394.500000	18.138000  
395.000000	18.958000  
395.500000	21.677000  
396.000000	23.757000  
396.500000	26.570000  
397.000000	28.362000  
397.500000	29.876000  
398.000000	32.001000  
398.500000	34.844000  
399.000000	36.723000  
399.500000	38.053000  
400.000000	41.527000  
400.500000	42.475000  
401.000000	45.106000  
401.500000	47.600000  
402.000000	49.312000  
402.500000	51.072000  
403.000000	51.967000  
403.500000	53.015000  
404.000000	54.970000  
404.500000	54.862000  
405.000000	55.531000  
405.500000	55.693000  
406.000000	56.339000  
406.500000	56.581000  
407.000000	56.592000  
407.500000	56.618000  
408.000000	55.633000  
408.500000	55.588000  
409.000000	53.119000  
409.500000	51.912000  
410.000000	51.518000  
410.500000	50.111000  
411.000000	48.892000  
411.500000	45.704000  
412.000000	45.009000  
412.500000	40.826000  
413.000000	38.546000  
413.500000	37.628000  
414.000000	36.174000  
414.500000	33.115000  
415.000000	31.774000  
415.500000	28.527000  
416.000000	25.846000  
416.500000	24.893000  
417.000000	22.512000  
417.500000	19.723000  
418.000000	18.002000  
418.500000	16.799000  
419.000000	15.110000  
419.500000	13.493000  
420.000000	12.302000  
420.500000	10.883000  
421.000000	9.635999   
421.500000	8.417000   
422.000000	7.080000   
422.500000	6.591000   
423.000000	6.078000   
423.500000	5.044000   
424.000000	4.569000   
424.500000	3.977000   
425.000000	3.720000   
425.500000	3.359000   
426.000000	2.680000   
426.500000	2.520000   
427.000000	2.223000   
427.500000	2.312000   
428.000000	1.989000   
428.500000	1.706000   
429.000000	1.718000   
429.500000	1.576000   
430.000000	1.498000   
430.500000	1.435000   
431.000000	1.285000   
431.500000	1.218000   
432.000000	1.101000   
432.500000	1.257000   
433.000000	1.205000   
433.500000	1.222000   
434.000000	1.165000   
434.500000	1.096000   
435.000000	1.024000   
435.500000	0.998000   
436.000000	1.029000   
436.500000	1.098000   
437.000000	1.086000   
437.500000	0.966000   
438.000000	1.027000   
438.500000	1.033000   
439.000000	0.922000   
439.500000	0.984000   
440.000000	0.853000   
440.500000	0.885000   
441.000000	0.953000   
441.500000	0.871000   
442.000000	0.889000   
442.500000	0.919000   
443.000000	0.885000   
443.500000	0.958000   
444.000000	0.718000   
444.500000	0.798000   
445.000000	0.846000   
445.500000	0.980000   
446.000000	0.917000   
446.500000	0.692999   
447.000000	0.722000   
447.500000	0.819000   
448.000000	0.966000   
448.500000	0.845000   
449.000000	0.872000   
449.500000	0.931000   
450.000000	0.877000   
450.500000	0.894000   
451.000000	0.907000   
451.500000	0.841000   
452.000000	0.721000   
452.500000	0.730000   
453.000000	0.801000   
453.500000	0.816999   
454.000000	0.812999   
454.500000	0.778000   
455.000000	0.931000   
455.500000	0.889000   
456.000000	0.741000   
456.500000	0.870000   
457.000000	0.853000   
457.500000	0.994000   
458.000000	0.893000   
458.500000	0.881000   
459.000000	0.832000   
459.500000	0.942999   
460.000000	0.923000   
460.500000	0.857000   
461.000000	0.880000   
461.500000	0.776000   
462.000000	0.788000   
462.500000	0.606000   
463.000000	0.832000   
463.500000	0.863000   
464.000000	0.860000   
464.500000	0.743000   
465.000000	0.714000   
465.500000	0.752000   
466.000000	0.975000   
466.500000	0.727000   
467.000000	0.737000   
467.500000	0.869000   
468.000000	0.774000   
468.500000	0.644000   
469.000000	0.629000   
469.500000	0.683000   
470.000000	0.707000   
470.500000	0.702000   
471.000000	0.716000   
471.500000	0.655000   
472.000000	0.623000   
472.500000	0.580000   
473.000000	0.652000   
473.500000	0.632000   
474.000000	0.692999   
474.500000	0.782000   
475.000000	0.748000   
475.500000	0.478000   
476.000000	0.426000   
476.500000	0.587000   
477.000000	0.553000   
477.500000	0.590000   
478.000000	0.521000   
478.500000	0.747000   
479.000000	0.659000   
479.500000	0.682000   
480.000000	0.641000   
480.500000	0.625000   
481.000000	0.717000   
481.500000	0.751000   
482.000000	0.619000   
482.500000	0.662000   
483.000000	0.585000   
483.500000	0.644000   
484.000000	0.672000   
484.500000	0.609000   
485.000000	0.674000   
485.500000	0.629000   
486.000000	0.598000   
486.500000	0.678000   
487.000000	0.664000   
487.500000	0.668000   
488.000000	0.675000   
488.500000	0.619000   
489.000000	0.602000   
489.500000	0.644000   
490.000000	0.618000   
490.500000	0.659000   
491.000000	0.651000   
491.500000	0.728000   
492.000000	0.710000   
492.500000	0.616000   
493.000000	0.629000   
493.500000	0.796000   
494.000000	0.752000   
494.500000	0.676000   
495.000000	0.635000   
495.500000	0.730000   
496.000000	0.683000   
496.500000	0.763000   
497.000000	0.712000   
497.500000	0.750000   
498.000000	0.593000   
498.500000	0.485000   
499.000000	0.648000   
499.500000	0.676000   
500.000000	0.513000   
500.500000	0.474000   
501.000000	0.629000   
501.500000	0.505000   
502.000000	0.447000   
502.500000	0.611000   
503.000000	0.534000   
503.500000	0.522000   
504.000000	0.571000   
504.500000	0.547000   
505.000000	0.447000   
505.500000	0.599000   
506.000000	0.582000   
506.500000	0.522000   
507.000000	0.496000   
507.500000	0.516000   
508.000000	0.497000   
508.500000	0.355000   
509.000000	0.514000   
509.500000	0.431000   
510.000000	0.468000   
510.500000	0.519000   
511.000000	0.656000   
511.500000	0.492000   
512.000000	0.434000   
512.500000	0.421000   
513.000000	0.301000   
513.500000	0.500000   
514.000000	0.465000   
514.500000	0.497000   
515.000000	0.502000   
515.500000	0.447000   
516.000000	0.562000   
516.500000	0.535000   
517.000000	0.473000   
517.500000	0.523000   
518.000000	0.550000   
518.500000	0.511000   
519.000000	0.631000   
519.500000	0.319000   
520.000000	0.355000   
520.500000	0.415000   
521.000000	0.483000   
521.500000	0.519000   
522.000000	0.440000   
522.500000	0.357000   
523.000000	0.440000   
523.500000	0.456000   
524.000000	0.475000   
524.500000	0.519000   
525.000000	0.638000   
525.500000	0.537000   
526.000000	0.537000   
526.500000	0.364000   
527.000000	0.391000   
527.500000	0.446000   
528.000000	0.362000   
528.500000	0.324000   
529.000000	0.405000   
529.500000	0.316000   
530.000000	0.427000   
530.500000	0.289000   
531.000000	0.441000   
531.500000	0.484000   
532.000000	0.413000   
532.500000	0.357000   
533.000000	0.405000   
533.500000	0.338000   
534.000000	0.352000   
534.500000	0.406000   
535.000000	0.433000   
535.500000	0.425000   
536.000000	0.377000   
536.500000	0.470000   
537.000000	0.403000   
537.500000	0.441000   
538.000000	0.310000   
538.500000	0.493000   
539.000000	0.454000   
539.500000	0.432000   
540.000000	0.417000   
540.500000	0.478000   
541.000000	0.432000   
541.500000	0.367000   
542.000000	0.320000   
542.500000	0.347000   
543.000000	0.347000   
543.500000	0.348000   
544.000000	0.390000   
544.500000	0.361000   
545.000000	0.378000   
545.500000	0.352000   
546.000000	0.383000   
546.500000	0.369000   
547.000000	0.338000   
547.500000	0.349000   
548.000000	0.321000   
548.500000	0.410000   

