PE FL                   SPECTRUM    ASCII       PEDS        1.60        
  -1
0188F1~1.SP
19/01/24
10:33:09.00
19/01/24
10:33:09.00


548.500000
1









LS45
370.00
10.00
10.00
SCAN
1
16
100
100
0
600
0
1
0
1
7
ON
435 365 
0 0 0
#HDR
-1
-1
#GR
NM
INT 
0.00002384185791015625
0.0
230.000000
0.500000
638
8
454.647000
0.051000
#DATA
230.000000	0.095000   
230.500000	0.122000   
231.000000	0.142000   
231.500000	0.110000   
232.000000	0.106000   
232.500000	0.101000   
233.000000	0.085999   
233.500000	0.108000   
234.000000	0.124000   
234.500000	0.051000   
235.000000	0.101000   
235.500000	0.065000   
236.000000	0.131000   
236.500000	0.129000   
237.000000	0.053000   
237.500000	0.094000   
238.000000	0.107000   
238.500000	0.120000   
239.000000	0.099000   
239.500000	0.126000   
240.000000	0.112000   
240.500000	0.119000   
241.000000	0.116000   
241.500000	0.212000   
242.000000	0.235000   
242.500000	0.121000   
243.000000	0.119000   
243.500000	0.075000   
244.000000	0.091000   
244.500000	0.053000   
245.000000	0.091000   
245.500000	0.112000   
246.000000	0.097000   
246.500000	0.123000   
247.000000	0.166000   
247.500000	0.132000   
248.000000	0.128000   
248.500000	0.134000   
249.000000	0.142000   
249.500000	0.145000   
250.000000	0.151000   
250.500000	0.105000   
251.000000	0.079000   
251.500000	0.089000   
252.000000	0.166000   
252.500000	0.135000   
253.000000	0.133000   
253.500000	0.150000   
254.000000	0.189000   
254.500000	0.132000   
255.000000	0.222000   
255.500000	0.166000   
256.000000	0.079000   
256.500000	0.060000   
257.000000	0.095000   
257.500000	0.135000   
258.000000	0.133000   
258.500000	0.129000   
259.000000	0.135000   
259.500000	0.143000   
260.000000	0.154000   
260.500000	0.140000   
261.000000	0.090000   
261.500000	0.145000   
262.000000	0.200000   
262.500000	0.257000   
263.000000	0.119000   
263.500000	0.095000   
264.000000	0.138000   
264.500000	0.235000   
265.000000	0.136000   
265.500000	0.136000   
266.000000	0.138000   
266.500000	0.154000   
267.000000	0.129000   
267.500000	0.137000   
268.000000	0.159000   
268.500000	0.197000   
269.000000	0.197000   
269.500000	0.159000   
270.000000	0.188000   
270.500000	0.210000   
271.000000	0.149000   
271.500000	0.161000   
272.000000	0.129000   
272.500000	0.116000   
273.000000	0.146000   
273.500000	0.173000   
274.000000	0.185000   
274.500000	0.209000   
275.000000	0.209000   
275.500000	0.302000   
276.000000	0.319000   
276.500000	0.232000   
277.000000	0.221000   
277.500000	0.301000   
278.000000	0.208000   
278.500000	0.245000   
279.000000	0.175000   
279.500000	0.242000   
280.000000	0.218000   
280.500000	0.215000   
281.000000	0.196000   
281.500000	0.265000   
282.000000	0.169000   
282.500000	0.201000   
283.000000	0.254000   
283.500000	0.173000   
284.000000	0.231000   
284.500000	0.319000   
285.000000	0.215000   
285.500000	0.270000   
286.000000	0.166000   
286.500000	0.206000   
287.000000	0.174000   
287.500000	0.300000   
288.000000	0.223000   
288.500000	0.272000   
289.000000	0.142000   
289.500000	0.193000   
290.000000	0.204000   
290.500000	0.300000   
291.000000	0.218000   
291.500000	0.234000   
292.000000	0.238000   
292.500000	0.324000   
293.000000	0.240000   
293.500000	0.235000   
294.000000	0.253000   
294.500000	0.372000   
295.000000	0.242000   
295.500000	0.245000   
296.000000	0.276000   
296.500000	0.241000   
297.000000	0.228000   
297.500000	0.224000   
298.000000	0.366000   
298.500000	0.398000   
299.000000	0.263000   
299.500000	0.294000   
300.000000	0.357000   
300.500000	0.304000   
301.000000	0.372000   
301.500000	0.330000   
302.000000	0.505000   
302.500000	0.352000   
303.000000	0.364000   
303.500000	0.386000   
304.000000	0.256000   
304.500000	0.324000   
305.000000	0.257000   
305.500000	0.417000   
306.000000	0.461000   
306.500000	0.448000   
307.000000	0.311000   
307.500000	0.408000   
308.000000	0.362000   
308.500000	0.391000   
309.000000	0.382000   
309.500000	0.247000   
310.000000	0.371000   
310.500000	0.427000   
311.000000	0.475000   
311.500000	0.489000   
312.000000	0.415000   
312.500000	0.405000   
313.000000	0.436000   
313.500000	0.513000   
314.000000	0.459000   
314.500000	0.519000   
315.000000	0.482000   
315.500000	0.470000   
316.000000	0.485000   
316.500000	0.457000   
317.000000	0.625000   
317.500000	0.486000   
318.000000	0.502000   
318.500000	0.507000   
319.000000	0.494000   
319.500000	0.561000   
320.000000	0.508000   
320.500000	0.546000   
321.000000	0.592000   
321.500000	0.627000   
322.000000	0.646000   
322.500000	0.808000   
323.000000	0.664000   
323.500000	0.657000   
324.000000	0.804000   
324.500000	0.801000   
325.000000	0.747000   
325.500000	0.702000   
326.000000	0.610000   
326.500000	0.680000   
327.000000	0.684000   
327.500000	0.806000   
328.000000	0.905000   
328.500000	0.932000   
329.000000	0.761000   
329.500000	0.732000   
330.000000	0.965000   
330.500000	0.939999   
331.000000	0.883000   
331.500000	0.946000   
332.000000	1.027000   
332.500000	1.095000   
333.000000	1.118000   
333.500000	0.963000   
334.000000	1.062000   
334.500000	1.164000   
335.000000	1.255000   
335.500000	1.290000   
336.000000	1.077000   
336.500000	1.170000   
337.000000	1.499000   
337.500000	1.358000   
338.000000	1.320000   
338.500000	1.400000   
339.000000	1.380000   
339.500000	1.707000   
340.000000	1.434000   
340.500000	1.433000   
341.000000	1.749000   
341.500000	1.645000   
342.000000	1.743000   
342.500000	1.778000   
343.000000	1.680000   
343.500000	1.779000   
344.000000	2.020000   
344.500000	2.154000   
345.000000	2.178000   
345.500000	2.349000   
346.000000	2.531000   
346.500000	2.992000   
347.000000	3.474000   
347.500000	4.388000   
348.000000	5.188000   
348.500000	6.428000   
349.000000	7.859000   
349.500000	10.218000  
350.000000	13.109000  
350.500000	16.534000  
351.000000	22.530000  
351.500000	27.013000  
352.000000	34.082000  
352.500000	40.670000  
353.000000	51.671000  
353.500000	61.140000  
354.000000	72.295000  
354.500000	83.506000  
355.000000	99.394000  
355.500000	116.676000 
356.000000	132.412000 
356.500000	150.218000 
357.000000	168.803000 
357.500000	189.201000 
358.000000	208.235000 
358.500000	229.864000 
359.000000	251.770000 
359.500000	272.989000 
360.000000	293.868000 
360.500000	316.342000 
361.000000	332.007000 
361.500000	353.203000 
362.000000	374.166000 
362.500000	391.066000 
363.000000	403.348000 
363.500000	417.924000 
364.000000	430.487000 
364.500000	439.443000 
365.000000	445.905000 
365.500000	447.767000 
366.000000	451.833000 
366.500000	453.095000 
367.000000	454.647000 
367.500000	450.927000 
368.000000	441.420000 
368.500000	429.918000 
369.000000	417.498000 
369.500000	405.700000 
370.000000	387.522000 
370.500000	369.026000 
371.000000	349.841000 
371.500000	335.975000 
372.000000	317.147000 
372.500000	293.909000 
373.000000	268.079000 
373.500000	249.218000 
374.000000	225.618000 
374.500000	205.180000 
375.000000	187.022000 
375.500000	166.285000 
376.000000	147.373000 
376.500000	129.141000 
377.000000	115.425000 
377.500000	98.665000  
378.000000	87.667000  
378.500000	73.453999  
379.000000	65.171000  
379.500000	54.425000  
380.000000	45.758000  
380.500000	38.173000  
381.000000	30.681000  
381.500000	25.119000  
382.000000	20.060000  
382.500000	16.981000  
383.000000	14.368000  
383.500000	11.110000  
384.000000	9.416000   
384.500000	8.365000   
385.000000	6.458000   
385.500000	5.647000   
386.000000	5.406000   
386.500000	4.687000   
387.000000	4.469000   
387.500000	4.305000   
388.000000	4.368000   
388.500000	4.046000   
389.000000	3.982000   
389.500000	3.849000   
390.000000	3.748000   
390.500000	3.810000   
391.000000	3.333000   
391.500000	3.563000   
392.000000	3.713000   
392.500000	3.398000   
393.000000	3.367000   
393.500000	3.256000   
394.000000	3.361000   
394.500000	3.420000   
395.000000	3.284000   
395.500000	3.095000   
396.000000	3.137000   
396.500000	3.168000   
397.000000	3.366000   
397.500000	3.258000   
398.000000	3.399000   
398.500000	3.484000   
399.000000	4.093000   
399.500000	3.829000   
400.000000	4.220000   
400.500000	4.714000   
401.000000	4.762000   
401.500000	5.394000   
402.000000	5.852000   
402.500000	6.220000   
403.000000	7.118000   
403.500000	7.568000   
404.000000	9.121000   
404.500000	9.349000   
405.000000	10.000000  
405.500000	11.255000  
406.000000	12.187000  
406.500000	13.455000  
407.000000	15.125000  
407.500000	16.815000  
408.000000	17.701000  
408.500000	18.364000  
409.000000	20.949000  
409.500000	22.593000  
410.000000	24.472000  
410.500000	26.134000  
411.000000	27.189000  
411.500000	29.043000  
412.000000	30.544000  
412.500000	33.408000  
413.000000	35.690000  
413.500000	36.614000  
414.000000	38.292000  
414.500000	39.956000  
415.000000	39.859000  
415.500000	41.887000  
416.000000	43.755000  
416.500000	44.170000  
417.000000	44.763000  
417.500000	46.121000  
418.000000	47.237000  
418.500000	45.995000  
419.000000	47.183000  
419.500000	46.803000  
420.000000	47.205000  
420.500000	46.333000  
421.000000	44.768000  
421.500000	44.728000  
422.000000	42.620000  
422.500000	40.737000  
423.000000	40.048000  
423.500000	38.279000  
424.000000	37.699000  
424.500000	34.960000  
425.000000	33.120000  
425.500000	31.266000  
426.000000	29.926000  
426.500000	27.929000  
427.000000	25.977000  
427.500000	25.213000  
428.000000	22.483000  
428.500000	21.017000  
429.000000	20.338000  
429.500000	18.493000  
430.000000	16.500000  
430.500000	15.262000  
431.000000	13.161000  
431.500000	11.742000  
432.000000	11.575000  
432.500000	10.448000  
433.000000	8.842000   
433.500000	8.356999   
434.000000	7.001000   
434.500000	6.555000   
435.000000	5.839000   
435.500000	5.173000   
436.000000	4.572000   
436.500000	3.900000   
437.000000	3.436000   
437.500000	3.544000   
438.000000	3.154000   
438.500000	2.618000   
439.000000	2.297000   
439.500000	1.999000   
440.000000	1.886000   
440.500000	1.806000   
441.000000	1.772000   
441.500000	1.706000   
442.000000	1.435000   
442.500000	1.263000   
443.000000	1.272000   
443.500000	1.372000   
444.000000	1.144000   
444.500000	1.129000   
445.000000	1.174000   
445.500000	1.302000   
446.000000	1.156000   
446.500000	1.103000   
447.000000	0.940999   
447.500000	1.128000   
448.000000	0.959000   
448.500000	1.026000   
449.000000	1.056000   
449.500000	0.979000   
450.000000	1.011000   
450.500000	0.983000   
451.000000	0.985000   
451.500000	0.854000   
452.000000	0.953000   
452.500000	0.977000   
453.000000	0.800000   
453.500000	0.907000   
454.000000	0.979000   
454.500000	0.804000   
455.000000	0.781000   
455.500000	0.712000   
456.000000	0.740000   
456.500000	0.957000   
457.000000	0.952000   
457.500000	0.920000   
458.000000	0.804000   
458.500000	0.829000   
459.000000	1.015000   
459.500000	0.966000   
460.000000	0.883000   
460.500000	0.730000   
461.000000	0.864000   
461.500000	0.847000   
462.000000	0.771000   
462.500000	0.739000   
463.000000	0.895000   
463.500000	0.745000   
464.000000	0.873000   
464.500000	0.994000   
465.000000	0.831000   
465.500000	0.688999   
466.000000	0.819000   
466.500000	0.764000   
467.000000	0.821000   
467.500000	0.833000   
468.000000	0.761000   
468.500000	0.674000   
469.000000	0.716000   
469.500000	0.752000   
470.000000	0.729000   
470.500000	0.657000   
471.000000	0.639000   
471.500000	0.581000   
472.000000	0.658000   
472.500000	0.736000   
473.000000	0.681000   
473.500000	0.623000   
474.000000	0.494000   
474.500000	0.516000   
475.000000	0.636000   
475.500000	0.513000   
476.000000	0.614000   
476.500000	0.630000   
477.000000	0.648000   
477.500000	0.555000   
478.000000	0.619000   
478.500000	0.571000   
479.000000	0.713000   
479.500000	0.597000   
480.000000	0.650000   
480.500000	0.532000   
481.000000	0.501000   
481.500000	0.647000   
482.000000	0.617000   
482.500000	0.691999   
483.000000	0.633000   
483.500000	0.637000   
484.000000	0.643000   
484.500000	0.559000   
485.000000	0.543000   
485.500000	0.585000   
486.000000	0.634000   
486.500000	0.511000   
487.000000	0.502000   
487.500000	0.734000   
488.000000	0.631000   
488.500000	0.674000   
489.000000	0.630000   
489.500000	0.661000   
490.000000	0.699000   
490.500000	0.638000   
491.000000	0.537000   
491.500000	0.622000   
492.000000	0.708000   
492.500000	0.629000   
493.000000	0.686000   
493.500000	0.677000   
494.000000	0.591000   
494.500000	0.650000   
495.000000	0.744000   
495.500000	0.742000   
496.000000	0.696000   
496.500000	0.627000   
497.000000	0.470000   
497.500000	0.594000   
498.000000	0.598000   
498.500000	0.596000   
499.000000	0.523000   
499.500000	0.598000   
500.000000	0.658000   
500.500000	0.707000   
501.000000	0.486000   
501.500000	0.520000   
502.000000	0.429000   
502.500000	0.516000   
503.000000	0.515000   
503.500000	0.479000   
504.000000	0.483000   
504.500000	0.486000   
505.000000	0.542000   
505.500000	0.646000   
506.000000	0.361000   
506.500000	0.383000   
507.000000	0.524000   
507.500000	0.517000   
508.000000	0.575000   
508.500000	0.440000   
509.000000	0.417000   
509.500000	0.422000   
510.000000	0.595000   
510.500000	0.392000   
511.000000	0.405000   
511.500000	0.640000   
512.000000	0.511000   
512.500000	0.412000   
513.000000	0.486000   
513.500000	0.519000   
514.000000	0.488000   
514.500000	0.429000   
515.000000	0.387000   
515.500000	0.477000   
516.000000	0.485000   
516.500000	0.400000   
517.000000	0.382000   
517.500000	0.290000   
518.000000	0.454000   
518.500000	0.408000   
519.000000	0.631000   
519.500000	0.626000   
520.000000	0.335000   
520.500000	0.366000   
521.000000	0.385000   
521.500000	0.368000   
522.000000	0.436000   
522.500000	0.454000   
523.000000	0.414000   
523.500000	0.409000   
524.000000	0.389000   
524.500000	0.332000   
525.000000	0.463000   
525.500000	0.359000   
526.000000	0.383000   
526.500000	0.363000   
527.000000	0.397000   
527.500000	0.376000   
528.000000	0.471000   
528.500000	0.479000   
529.000000	0.448000   
529.500000	0.382000   
530.000000	0.362000   
530.500000	0.401000   
531.000000	0.355000   
531.500000	0.465000   
532.000000	0.379000   
532.500000	0.338000   
533.000000	0.389000   
533.500000	0.435000   
534.000000	0.489000   
534.500000	0.372000   
535.000000	0.282000   
535.500000	0.248000   
536.000000	0.378000   
536.500000	0.337000   
537.000000	0.376000   
537.500000	0.390000   
538.000000	0.286000   
538.500000	0.299000   
539.000000	0.208000   
539.500000	0.229000   
540.000000	0.303000   
540.500000	0.290000   
541.000000	0.345000   
541.500000	0.441000   
542.000000	0.351000   
542.500000	0.241000   
543.000000	0.257000   
543.500000	0.295000   
544.000000	0.225000   
544.500000	0.235000   
545.000000	0.272000   
545.500000	0.274000   
546.000000	0.319000   
546.500000	0.348000   
547.000000	0.332000   
547.500000	0.248000   
548.000000	0.251000   
548.500000	0.323000   

