PE FL                   SPECTRUM    ASCII       PEDS        1.60        
  -1
017CFD~1.SP
19/01/24
10:36:56.00
19/01/24
10:36:56.00


548.500000
1









LS45
395.00
10.00
10.00
SCAN
1
16
100
100
0
600
0
1
0
1
7
ON
435 365 
0 0 0
#HDR
-1
-1
#GR
NM
INT 
0.00002384185791015625
0.0
230.000000
0.500000
638
8
369.854000
0.028000
#DATA
230.000000	0.113000   
230.500000	0.082000   
231.000000	0.081000   
231.500000	0.086999   
232.000000	0.100000   
232.500000	0.035000   
233.000000	0.092000   
233.500000	0.068000   
234.000000	0.086999   
234.500000	0.085000   
235.000000	0.069000   
235.500000	0.120000   
236.000000	0.087999   
236.500000	0.091000   
237.000000	0.067000   
237.500000	0.094000   
238.000000	0.085000   
238.500000	0.087999   
239.000000	0.085000   
239.500000	0.046000   
240.000000	0.077000   
240.500000	0.059000   
241.000000	0.053000   
241.500000	0.078000   
242.000000	0.060000   
242.500000	0.111000   
243.000000	0.081000   
243.500000	0.056000   
244.000000	0.108000   
244.500000	0.085999   
245.000000	0.056000   
245.500000	0.055000   
246.000000	0.114000   
246.500000	0.084000   
247.000000	0.042000   
247.500000	0.082000   
248.000000	0.090000   
248.500000	0.123000   
249.000000	0.104000   
249.500000	0.071999   
250.000000	0.093000   
250.500000	0.087999   
251.000000	0.084000   
251.500000	0.040000   
252.000000	0.077000   
252.500000	0.076000   
253.000000	0.075000   
253.500000	0.091000   
254.000000	0.087999   
254.500000	0.080000   
255.000000	0.090000   
255.500000	0.084000   
256.000000	0.084000   
256.500000	0.110000   
257.000000	0.157000   
257.500000	0.106000   
258.000000	0.086999   
258.500000	0.028000   
259.000000	0.078000   
259.500000	0.110000   
260.000000	0.092000   
260.500000	0.100000   
261.000000	0.109000   
261.500000	0.104000   
262.000000	0.080000   
262.500000	0.123000   
263.000000	0.122000   
263.500000	0.073000   
264.000000	0.070999   
264.500000	0.127000   
265.000000	0.099000   
265.500000	0.113000   
266.000000	0.116000   
266.500000	0.104000   
267.000000	0.106000   
267.500000	0.131000   
268.000000	0.145000   
268.500000	0.123000   
269.000000	0.125000   
269.500000	0.160000   
270.000000	0.104000   
270.500000	0.128000   
271.000000	0.104000   
271.500000	0.121000   
272.000000	0.109000   
272.500000	0.145000   
273.000000	0.153000   
273.500000	0.153000   
274.000000	0.083000   
274.500000	0.111000   
275.000000	0.091000   
275.500000	0.080000   
276.000000	0.109000   
276.500000	0.105000   
277.000000	0.161000   
277.500000	0.145000   
278.000000	0.171000   
278.500000	0.129000   
279.000000	0.139000   
279.500000	0.169000   
280.000000	0.156000   
280.500000	0.169000   
281.000000	0.111000   
281.500000	0.123000   
282.000000	0.085999   
282.500000	0.125000   
283.000000	0.162000   
283.500000	0.188000   
284.000000	0.131000   
284.500000	0.139000   
285.000000	0.151000   
285.500000	0.114000   
286.000000	0.148000   
286.500000	0.165000   
287.000000	0.131000   
287.500000	0.124000   
288.000000	0.165000   
288.500000	0.120000   
289.000000	0.158000   
289.500000	0.229000   
290.000000	0.282000   
290.500000	0.206000   
291.000000	0.184000   
291.500000	0.146000   
292.000000	0.154000   
292.500000	0.181000   
293.000000	0.225000   
293.500000	0.230000   
294.000000	0.235000   
294.500000	0.246000   
295.000000	0.227000   
295.500000	0.279000   
296.000000	0.274000   
296.500000	0.182000   
297.000000	0.153000   
297.500000	0.185000   
298.000000	0.186000   
298.500000	0.295000   
299.000000	0.177000   
299.500000	0.314000   
300.000000	0.256000   
300.500000	0.235000   
301.000000	0.332000   
301.500000	0.188000   
302.000000	0.220000   
302.500000	0.236000   
303.000000	0.242000   
303.500000	0.196000   
304.000000	0.182000   
304.500000	0.291000   
305.000000	0.229000   
305.500000	0.256000   
306.000000	0.188000   
306.500000	0.217000   
307.000000	0.229000   
307.500000	0.182000   
308.000000	0.164000   
308.500000	0.256000   
309.000000	0.284000   
309.500000	0.264000   
310.000000	0.223000   
310.500000	0.306000   
311.000000	0.236000   
311.500000	0.312000   
312.000000	0.241000   
312.500000	0.222000   
313.000000	0.315000   
313.500000	0.293000   
314.000000	0.273000   
314.500000	0.280000   
315.000000	0.250000   
315.500000	0.245000   
316.000000	0.290000   
316.500000	0.312000   
317.000000	0.345000   
317.500000	0.267000   
318.000000	0.304000   
318.500000	0.333000   
319.000000	0.238000   
319.500000	0.307000   
320.000000	0.330000   
320.500000	0.296000   
321.000000	0.391000   
321.500000	0.376000   
322.000000	0.272000   
322.500000	0.215000   
323.000000	0.206000   
323.500000	0.222000   
324.000000	0.261000   
324.500000	0.297000   
325.000000	0.286000   
325.500000	0.189000   
326.000000	0.224000   
326.500000	0.295000   
327.000000	0.247000   
327.500000	0.319000   
328.000000	0.310000   
328.500000	0.350000   
329.000000	0.346000   
329.500000	0.318000   
330.000000	0.379000   
330.500000	0.340000   
331.000000	0.330000   
331.500000	0.349000   
332.000000	0.306000   
332.500000	0.238000   
333.000000	0.359000   
333.500000	0.402000   
334.000000	0.302000   
334.500000	0.279000   
335.000000	0.361000   
335.500000	0.344000   
336.000000	0.503000   
336.500000	0.393000   
337.000000	0.451000   
337.500000	0.459000   
338.000000	0.471000   
338.500000	0.429000   
339.000000	0.314000   
339.500000	0.378000   
340.000000	0.466000   
340.500000	0.403000   
341.000000	0.383000   
341.500000	0.499000   
342.000000	0.396000   
342.500000	0.554000   
343.000000	0.472000   
343.500000	0.480000   
344.000000	0.514000   
344.500000	0.469000   
345.000000	0.652000   
345.500000	0.559000   
346.000000	0.534000   
346.500000	0.577000   
347.000000	0.615000   
347.500000	0.610000   
348.000000	0.563999   
348.500000	0.561000   
349.000000	0.671000   
349.500000	0.582000   
350.000000	0.613000   
350.500000	0.517000   
351.000000	0.523000   
351.500000	0.574000   
352.000000	0.676000   
352.500000	0.629000   
353.000000	0.564999   
353.500000	0.588000   
354.000000	0.608000   
354.500000	0.826000   
355.000000	0.806000   
355.500000	0.790000   
356.000000	0.764000   
356.500000	0.687999   
357.000000	0.790000   
357.500000	0.926000   
358.000000	0.850000   
358.500000	0.946000   
359.000000	0.758000   
359.500000	0.799000   
360.000000	0.800000   
360.500000	0.950000   
361.000000	0.923000   
361.500000	1.127000   
362.000000	1.078000   
362.500000	1.053000   
363.000000	0.999000   
363.500000	1.140000   
364.000000	1.048000   
364.500000	1.123000   
365.000000	1.130000   
365.500000	1.066000   
366.000000	1.129000   
366.500000	1.194000   
367.000000	1.390000   
367.500000	1.256000   
368.000000	1.293000   
368.500000	1.438000   
369.000000	1.494000   
369.500000	1.615000   
370.000000	1.407000   
370.500000	1.722000   
371.000000	1.885000   
371.500000	2.310000   
372.000000	2.728000   
372.500000	2.855000   
373.000000	3.902000   
373.500000	4.980000   
374.000000	6.310000   
374.500000	7.986000   
375.000000	10.462000  
375.500000	13.362000  
376.000000	16.381000  
376.500000	21.216000  
377.000000	26.065000  
377.500000	31.907000  
378.000000	39.144000  
378.500000	46.964000  
379.000000	53.573000  
379.500000	64.507000  
380.000000	74.215000  
380.500000	85.259000  
381.000000	96.154000  
381.500000	111.280000 
382.000000	125.382000 
382.500000	140.326000 
383.000000	158.160000 
383.500000	172.261000 
384.000000	190.482000 
384.500000	207.232000 
385.000000	226.940000 
385.500000	245.281000 
386.000000	258.650000 
386.500000	272.879000 
387.000000	292.623000 
387.500000	305.036000 
388.000000	318.461000 
388.500000	331.061000 
389.000000	343.686000 
389.500000	352.977000 
390.000000	356.742000 
390.500000	363.286000 
391.000000	366.459000 
391.500000	369.854000 
392.000000	368.573000 
392.500000	365.085000 
393.000000	364.600000 
393.500000	356.845000 
394.000000	347.561000 
394.500000	337.356000 
395.000000	326.335000 
395.500000	314.124000 
396.000000	302.587000 
396.500000	281.427000 
397.000000	264.931000 
397.500000	246.311000 
398.000000	230.208000 
398.500000	213.109000 
399.000000	196.281000 
399.500000	177.879000 
400.000000	158.061000 
400.500000	141.828000 
401.000000	127.484000 
401.500000	112.390000 
402.000000	97.102999  
402.500000	86.953000  
403.000000	74.720000  
403.500000	66.343999  
404.000000	55.460000  
404.500000	47.915000  
405.000000	39.274000  
405.500000	33.914000  
406.000000	26.607000  
406.500000	22.709000  
407.000000	18.480000  
407.500000	15.326000  
408.000000	12.561000  
408.500000	10.043000  
409.000000	7.762000   
409.500000	6.907000   
410.000000	5.446000   
410.500000	4.720000   
411.000000	4.183000   
411.500000	3.521000   
412.000000	3.395000   
412.500000	3.202000   
413.000000	3.301000   
413.500000	3.207000   
414.000000	3.124000   
414.500000	2.949000   
415.000000	3.096000   
415.500000	3.145000   
416.000000	3.127000   
416.500000	3.100000   
417.000000	3.262000   
417.500000	2.944000   
418.000000	3.098000   
418.500000	2.886000   
419.000000	2.862000   
419.500000	2.995000   
420.000000	2.876000   
420.500000	2.824000   
421.000000	2.930000   
421.500000	2.838000   
422.000000	2.811000   
422.500000	2.592000   
423.000000	2.559000   
423.500000	2.459000   
424.000000	2.556000   
424.500000	2.489000   
425.000000	2.340000   
425.500000	2.100000   
426.000000	2.296000   
426.500000	2.075000   
427.000000	2.273000   
427.500000	2.058000   
428.000000	2.058000   
428.500000	2.106000   
429.000000	1.894000   
429.500000	1.913000   
430.000000	2.191000   
430.500000	2.056000   
431.000000	2.331000   
431.500000	2.519000   
432.000000	2.695000   
432.500000	2.647000   
433.000000	2.904000   
433.500000	2.946000   
434.000000	3.189000   
434.500000	3.587000   
435.000000	3.858000   
435.500000	4.152000   
436.000000	4.283000   
436.500000	5.001000   
437.000000	5.815000   
437.500000	6.107000   
438.000000	7.049000   
438.500000	7.868000   
439.000000	8.416000   
439.500000	9.259000   
440.000000	10.327000  
440.500000	11.010000  
441.000000	12.264000  
441.500000	12.605000  
442.000000	13.334000  
442.500000	14.625000  
443.000000	16.170000  
443.500000	16.819000  
444.000000	18.124000  
444.500000	18.335000  
445.000000	19.671000  
445.500000	20.771000  
446.000000	21.773000  
446.500000	23.353000  
447.000000	23.004000  
447.500000	24.114000  
448.000000	25.014000  
448.500000	25.832000  
449.000000	25.169000  
449.500000	26.148000  
450.000000	26.275000  
450.500000	26.498000  
451.000000	27.255000  
451.500000	26.259000  
452.000000	26.784000  
452.500000	26.495000  
453.000000	25.990000  
453.500000	25.229000  
454.000000	24.981000  
454.500000	23.985000  
455.000000	23.757000  
455.500000	22.637000  
456.000000	21.454000  
456.500000	20.654000  
457.000000	19.693000  
457.500000	19.290000  
458.000000	18.666000  
458.500000	17.753000  
459.000000	16.743000  
459.500000	15.328000  
460.000000	14.144000  
460.500000	14.123000  
461.000000	12.750000  
461.500000	11.834000  
462.000000	11.111000  
462.500000	9.813000   
463.000000	9.064000   
463.500000	8.346000   
464.000000	7.738000   
464.500000	6.957000   
465.000000	6.440000   
465.500000	5.365000   
466.000000	5.271000   
466.500000	4.853000   
467.000000	4.115000   
467.500000	3.552000   
468.000000	3.538000   
468.500000	3.351000   
469.000000	2.637000   
469.500000	2.491000   
470.000000	2.254000   
470.500000	1.783000   
471.000000	1.726000   
471.500000	1.376000   
472.000000	1.484000   
472.500000	1.548000   
473.000000	1.329000   
473.500000	1.007000   
474.000000	0.925000   
474.500000	0.920000   
475.000000	0.969000   
475.500000	0.784000   
476.000000	0.666000   
476.500000	0.691999   
477.000000	0.815999   
477.500000	0.756000   
478.000000	0.781000   
478.500000	0.657000   
479.000000	0.642000   
479.500000	0.635000   
480.000000	0.723000   
480.500000	0.644000   
481.000000	0.695000   
481.500000	0.583000   
482.000000	0.561000   
482.500000	0.467000   
483.000000	0.443000   
483.500000	0.509000   
484.000000	0.565999   
484.500000	0.517000   
485.000000	0.614000   
485.500000	0.493000   
486.000000	0.490000   
486.500000	0.466000   
487.000000	0.430000   
487.500000	0.538000   
488.000000	0.424000   
488.500000	0.474000   
489.000000	0.471000   
489.500000	0.408000   
490.000000	0.487000   
490.500000	0.535000   
491.000000	0.532000   
491.500000	0.469000   
492.000000	0.491000   
492.500000	0.481000   
493.000000	0.451000   
493.500000	0.376000   
494.000000	0.432000   
494.500000	0.404000   
495.000000	0.392000   
495.500000	0.360000   
496.000000	0.436000   
496.500000	0.489000   
497.000000	0.349000   
497.500000	0.444000   
498.000000	0.388000   
498.500000	0.402000   
499.000000	0.398000   
499.500000	0.432000   
500.000000	0.399000   
500.500000	0.371000   
501.000000	0.335000   
501.500000	0.361000   
502.000000	0.499000   
502.500000	0.430000   
503.000000	0.429000   
503.500000	0.452000   
504.000000	0.325000   
504.500000	0.379000   
505.000000	0.350000   
505.500000	0.418000   
506.000000	0.372000   
506.500000	0.311000   
507.000000	0.397000   
507.500000	0.343000   
508.000000	0.359000   
508.500000	0.239000   
509.000000	0.274000   
509.500000	0.256000   
510.000000	0.312000   
510.500000	0.202000   
511.000000	0.265000   
511.500000	0.374000   
512.000000	0.289000   
512.500000	0.284000   
513.000000	0.330000   
513.500000	0.297000   
514.000000	0.255000   
514.500000	0.302000   
515.000000	0.272000   
515.500000	0.319000   
516.000000	0.230000   
516.500000	0.303000   
517.000000	0.282000   
517.500000	0.287000   
518.000000	0.295000   
518.500000	0.341000   
519.000000	0.269000   
519.500000	0.265000   
520.000000	0.386000   
520.500000	0.384000   
521.000000	0.307000   
521.500000	0.239000   
522.000000	0.342000   
522.500000	0.312000   
523.000000	0.304000   
523.500000	0.328000   
524.000000	0.238000   
524.500000	0.239000   
525.000000	0.246000   
525.500000	0.287000   
526.000000	0.335000   
526.500000	0.305000   
527.000000	0.433000   
527.500000	0.377000   
528.000000	0.260000   
528.500000	0.227000   
529.000000	0.322000   
529.500000	0.326000   
530.000000	0.243000   
530.500000	0.308000   
531.000000	0.208000   
531.500000	0.326000   
532.000000	0.334000   
532.500000	0.260000   
533.000000	0.278000   
533.500000	0.267000   
534.000000	0.259000   
534.500000	0.294000   
535.000000	0.330000   
535.500000	0.302000   
536.000000	0.264000   
536.500000	0.283000   
537.000000	0.224000   
537.500000	0.217000   
538.000000	0.217000   
538.500000	0.226000   
539.000000	0.192000   
539.500000	0.184000   
540.000000	0.185000   
540.500000	0.233000   
541.000000	0.271000   
541.500000	0.275000   
542.000000	0.198000   
542.500000	0.195000   
543.000000	0.258000   
543.500000	0.209000   
544.000000	0.292000   
544.500000	0.287000   
545.000000	0.239000   
545.500000	0.208000   
546.000000	0.333000   
546.500000	0.241000   
547.000000	0.227000   
547.500000	0.275000   
548.000000	0.202000   
548.500000	0.213000   

