PE FL                   SPECTRUM    ASCII       PEDS        1.60        
  -1
0124SC~4.SP
19/01/24
12:58:51.00
19/01/24
12:58:51.00


548.500000
1









LS45
245.00
10.00
10.00
SCAN
1
16
100
100
0
600
0
1
0
1
7
ON
550 545 
0 0 0
#HDR
-1
-1
#GR
NM
INT 
0.00002384185791015625
0.0
230.000000
0.500000
638
8
999.999000
3.598000
#DATA
230.000000	3.598000   
230.500000	3.817000   
231.000000	4.800000   
231.500000	6.093000   
232.000000	6.980000   
232.500000	8.826000   
233.000000	11.283000  
233.500000	14.566000  
234.000000	17.532000  
234.500000	21.821000  
235.000000	25.440000  
235.500000	31.910000  
236.000000	37.957000  
236.500000	43.456000  
237.000000	50.465000  
237.500000	59.070000  
238.000000	64.953999  
238.500000	72.665000  
239.000000	83.227999  
239.500000	91.315000  
240.000000	102.804000 
240.500000	109.562000 
241.000000	119.327000 
241.500000	125.470000 
242.000000	135.024000 
242.500000	144.300000 
243.000000	152.980000 
243.500000	158.247000 
244.000000	168.935000 
244.500000	170.067000 
245.000000	176.570000 
245.500000	180.154000 
246.000000	181.450000 
246.500000	182.749000 
247.000000	180.775000 
247.500000	177.782000 
248.000000	174.135000 
248.500000	170.277000 
249.000000	167.014000 
249.500000	157.761000 
250.000000	154.141000 
250.500000	142.057000 
251.000000	134.459000 
251.500000	126.428000 
252.000000	120.972000 
252.500000	113.238000 
253.000000	103.567000 
253.500000	97.253000  
254.000000	86.425000  
254.500000	78.450000  
255.000000	72.090999  
255.500000	63.299000  
256.000000	57.111000  
256.500000	50.280000  
257.000000	46.564000  
257.500000	42.479000  
258.000000	39.931000  
258.500000	37.573000  
259.000000	35.224000  
259.500000	36.699000  
260.000000	37.777000  
260.500000	37.375000  
261.000000	38.007000  
261.500000	40.062000  
262.000000	41.421000  
262.500000	43.607000  
263.000000	44.490000  
263.500000	45.864000  
264.000000	48.988000  
264.500000	50.704000  
265.000000	53.370000  
265.500000	53.874000  
266.000000	56.602000  
266.500000	57.802000  
267.000000	57.567000  
267.500000	58.043000  
268.000000	59.915000  
268.500000	58.259000  
269.000000	59.784000  
269.500000	59.977000  
270.000000	56.733000  
270.500000	55.701000  
271.000000	55.309000  
271.500000	51.291000  
272.000000	50.069000  
272.500000	45.961000  
273.000000	45.737000  
273.500000	41.472000  
274.000000	39.768000  
274.500000	38.897000  
275.000000	35.812000  
275.500000	32.845000  
276.000000	29.656000  
276.500000	27.566000  
277.000000	25.004000  
277.500000	23.502000  
278.000000	19.083000  
278.500000	18.451000  
279.000000	15.906000  
279.500000	14.937000  
280.000000	13.709000  
280.500000	11.400000  
281.000000	10.182000  
281.500000	9.631000   
282.000000	8.601000   
282.500000	7.946000   
283.000000	7.621000   
283.500000	7.710000   
284.000000	7.027000   
284.500000	7.204000   
285.000000	6.540000   
285.500000	6.848000   
286.000000	6.868000   
286.500000	7.180000   
287.000000	6.807000   
287.500000	7.183000   
288.000000	7.097000   
288.500000	6.873000   
289.000000	6.876000   
289.500000	7.518000   
290.000000	7.703000   
290.500000	7.806000   
291.000000	7.989000   
291.500000	7.927000   
292.000000	7.974000   
292.500000	8.005000   
293.000000	8.759000   
293.500000	9.239000   
294.000000	9.330000   
294.500000	9.769000   
295.000000	10.430000  
295.500000	10.003000  
296.000000	10.045000  
296.500000	10.430000  
297.000000	10.393000  
297.500000	11.583000  
298.000000	11.562000  
298.500000	11.601000  
299.000000	11.070000  
299.500000	11.654000  
300.000000	12.239000  
300.500000	12.243000  
301.000000	13.411000  
301.500000	13.444000  
302.000000	14.049000  
302.500000	13.889000  
303.000000	13.876000  
303.500000	14.366000  
304.000000	14.683000  
304.500000	14.872000  
305.000000	15.663000  
305.500000	16.546000  
306.000000	17.048000  
306.500000	16.352000  
307.000000	16.324000  
307.500000	16.899000  
308.000000	17.707000  
308.500000	17.310000  
309.000000	17.442000  
309.500000	18.813000  
310.000000	19.237000  
310.500000	18.713000  
311.000000	19.218000  
311.500000	20.697000  
312.000000	21.913000  
312.500000	21.828000  
313.000000	23.026000  
313.500000	23.739000  
314.000000	23.276000  
314.500000	23.317000  
315.000000	23.848000  
315.500000	25.416000  
316.000000	26.530000  
316.500000	26.301000  
317.000000	26.700000  
317.500000	28.743000  
318.000000	28.766000  
318.500000	30.125000  
319.000000	31.067000  
319.500000	32.312000  
320.000000	32.230000  
320.500000	34.659000  
321.000000	36.094000  
321.500000	36.569000  
322.000000	37.988000  
322.500000	39.158000  
323.000000	41.087000  
323.500000	42.416000  
324.000000	42.569000  
324.500000	44.884000  
325.000000	46.719000  
325.500000	47.935000  
326.000000	49.251000  
326.500000	49.723000  
327.000000	51.883000  
327.500000	52.787000  
328.000000	55.192000  
328.500000	57.303000  
329.000000	59.495000  
329.500000	59.247000  
330.000000	59.097000  
330.500000	62.533000  
331.000000	64.505000  
331.500000	64.551000  
332.000000	67.746000  
332.500000	68.598000  
333.000000	69.423000  
333.500000	71.248000  
334.000000	75.054000  
334.500000	74.282000  
335.000000	77.266000  
335.500000	80.590999  
336.000000	79.779000  
336.500000	82.119000  
337.000000	83.077000  
337.500000	85.334000  
338.000000	86.075999  
338.500000	87.630000  
339.000000	90.293000  
339.500000	91.638000  
340.000000	92.135000  
340.500000	95.283000  
341.000000	98.028000  
341.500000	96.786000  
342.000000	99.447000  
342.500000	102.486000 
343.000000	102.127000 
343.500000	102.231000 
344.000000	105.470000 
344.500000	107.851000 
345.000000	106.647000 
345.500000	108.158000 
346.000000	112.650000 
346.500000	110.653000 
347.000000	111.332000 
347.500000	114.033000 
348.000000	113.817000 
348.500000	117.277000 
349.000000	116.641000 
349.500000	118.421000 
350.000000	118.740000 
350.500000	121.551000 
351.000000	122.529000 
351.500000	122.884000 
352.000000	122.233000 
352.500000	124.777000 
353.000000	124.638000 
353.500000	124.090000 
354.000000	125.264000 
354.500000	127.126000 
355.000000	127.368000 
355.500000	124.523000 
356.000000	126.517000 
356.500000	126.254000 
357.000000	125.906000 
357.500000	127.087000 
358.000000	128.515000 
358.500000	129.098000 
359.000000	127.208000 
359.500000	130.259000 
360.000000	127.584000 
360.500000	126.403000 
361.000000	126.549000 
361.500000	126.983000 
362.000000	128.014000 
362.500000	128.833000 
363.000000	128.944000 
363.500000	127.284000 
364.000000	127.471000 
364.500000	127.390000 
365.000000	130.645000 
365.500000	128.268000 
366.000000	127.162000 
366.500000	127.010000 
367.000000	127.906000 
367.500000	127.499000 
368.000000	128.475000 
368.500000	125.543000 
369.000000	125.556000 
369.500000	127.923000 
370.000000	126.450000 
370.500000	125.779000 
371.000000	127.222000 
371.500000	128.371000 
372.000000	128.467000 
372.500000	127.806000 
373.000000	126.353000 
373.500000	126.164000 
374.000000	124.420000 
374.500000	127.186000 
375.000000	126.946000 
375.500000	126.899000 
376.000000	126.587000 
376.500000	126.732000 
377.000000	126.658000 
377.500000	125.960000 
378.000000	124.277000 
378.500000	125.488000 
379.000000	124.220000 
379.500000	123.493000 
380.000000	125.623000 
380.500000	124.594000 
381.000000	123.002000 
381.500000	123.647000 
382.000000	120.810000 
382.500000	120.275000 
383.000000	120.531000 
383.500000	121.400000 
384.000000	120.778000 
384.500000	120.964000 
385.000000	119.663000 
385.500000	118.088000 
386.000000	117.236000 
386.500000	116.194000 
387.000000	116.436000 
387.500000	116.674000 
388.000000	114.959000 
388.500000	112.208000 
389.000000	112.199000 
389.500000	110.233000 
390.000000	110.897000 
390.500000	111.935000 
391.000000	113.035000 
391.500000	109.777000 
392.000000	109.125000 
392.500000	110.232000 
393.000000	110.998000 
393.500000	110.394000 
394.000000	107.760000 
394.500000	108.833000 
395.000000	107.670000 
395.500000	107.523000 
396.000000	105.664000 
396.500000	105.783000 
397.000000	104.067000 
397.500000	105.389000 
398.000000	105.383000 
398.500000	104.790000 
399.000000	104.145000 
399.500000	104.266000 
400.000000	103.990000 
400.500000	103.517000 
401.000000	104.088000 
401.500000	101.139000 
402.000000	102.071000 
402.500000	102.221000 
403.000000	101.743000 
403.500000	102.799000 
404.000000	103.321000 
404.500000	100.947000 
405.000000	99.887000  
405.500000	101.614000 
406.000000	103.332000 
406.500000	100.589000 
407.000000	101.118000 
407.500000	99.496000  
408.000000	100.200000 
408.500000	98.119000  
409.000000	98.962000  
409.500000	99.142000  
410.000000	97.489999  
410.500000	97.889000  
411.000000	98.352000  
411.500000	99.543000  
412.000000	99.547000  
412.500000	97.244000  
413.000000	96.913000  
413.500000	96.505000  
414.000000	98.755000  
414.500000	97.611000  
415.000000	98.711000  
415.500000	96.744000  
416.000000	96.994000  
416.500000	97.861999  
417.000000	96.685000  
417.500000	98.361999  
418.000000	96.587999  
418.500000	97.839000  
419.000000	96.732000  
419.500000	97.669000  
420.000000	97.532000  
420.500000	96.771000  
421.000000	97.575000  
421.500000	99.012000  
422.000000	99.035000  
422.500000	98.869000  
423.000000	100.464000 
423.500000	98.783000  
424.000000	97.255000  
424.500000	98.623000  
425.000000	100.793000 
425.500000	101.069000 
426.000000	99.078999  
426.500000	98.474000  
427.000000	101.554000 
427.500000	99.528000  
428.000000	100.685000 
428.500000	102.269000 
429.000000	103.733000 
429.500000	102.146000 
430.000000	103.184000 
430.500000	100.468000 
431.000000	102.376000 
431.500000	104.759000 
432.000000	104.710000 
432.500000	102.644000 
433.000000	105.647000 
433.500000	104.627000 
434.000000	105.612000 
434.500000	107.017000 
435.000000	105.963000 
435.500000	107.789000 
436.000000	107.405000 
436.500000	108.085000 
437.000000	106.766000 
437.500000	106.851000 
438.000000	108.529000 
438.500000	108.268000 
439.000000	109.452000 
439.500000	107.401000 
440.000000	109.494000 
440.500000	107.445000 
441.000000	106.477000 
441.500000	108.987000 
442.000000	109.536000 
442.500000	108.924000 
443.000000	108.861000 
443.500000	110.870000 
444.000000	109.920000 
444.500000	109.852000 
445.000000	110.119000 
445.500000	108.305000 
446.000000	107.247000 
446.500000	107.592000 
447.000000	109.036000 
447.500000	108.424000 
448.000000	107.568000 
448.500000	107.534000 
449.000000	108.161000 
449.500000	103.823000 
450.000000	105.003000 
450.500000	104.235000 
451.000000	105.957000 
451.500000	106.238000 
452.000000	105.677000 
452.500000	107.266000 
453.000000	105.966000 
453.500000	103.459000 
454.000000	103.243000 
454.500000	105.484000 
455.000000	103.976000 
455.500000	104.765000 
456.000000	103.695000 
456.500000	103.838000 
457.000000	99.982000  
457.500000	101.959000 
458.000000	101.166000 
458.500000	103.246000 
459.000000	98.917000  
459.500000	97.310000  
460.000000	98.867999  
460.500000	100.119000 
461.000000	97.474999  
461.500000	98.577000  
462.000000	98.663000  
462.500000	97.983000  
463.000000	98.271000  
463.500000	95.236999  
464.000000	95.447999  
464.500000	94.995000  
465.000000	96.331999  
465.500000	93.793000  
466.000000	94.555000  
466.500000	95.050000  
467.000000	95.500000  
467.500000	93.262000  
468.000000	94.976000  
468.500000	96.458000  
469.000000	97.381000  
469.500000	100.930000 
470.000000	100.872000 
470.500000	102.635000 
471.000000	103.766000 
471.500000	107.668000 
472.000000	115.503000 
472.500000	118.895000 
473.000000	127.791000 
473.500000	133.479000 
474.000000	143.712000 
474.500000	154.730000 
475.000000	169.351000 
475.500000	181.309000 
476.000000	201.392000 
476.500000	215.975000 
477.000000	232.573000 
477.500000	251.828000 
478.000000	272.811000 
478.500000	294.647000 
479.000000	319.947000 
479.500000	350.561000 
480.000000	370.050000 
480.500000	399.755000 
481.000000	445.798000 
481.500000	476.765000 
482.000000	513.967000 
482.500000	560.833999 
483.000000	672.583999 
483.500000	679.237000 
484.000000	771.833999 
484.500000	781.454000 
485.000000	831.285000 
485.500000	888.111000 
486.000000	999.999000 
486.500000	999.999000 
487.000000	999.999000 
487.500000	999.999000 
488.000000	999.999000 
488.500000	999.999000 
489.000000	999.999000 
489.500000	999.999000 
490.000000	999.999000 
490.500000	999.999000 
491.000000	999.999000 
491.500000	999.999000 
492.000000	999.999000 
492.500000	999.999000 
493.000000	999.999000 
493.500000	999.999000 
494.000000	999.999000 
494.500000	999.999000 
495.000000	999.999000 
495.500000	999.999000 
496.000000	999.999000 
496.500000	999.999000 
497.000000	999.999000 
497.500000	999.999000 
498.000000	999.999000 
498.500000	999.999000 
499.000000	999.999000 
499.500000	999.999000 
500.000000	999.999000 
500.500000	999.999000 
501.000000	999.999000 
501.500000	938.558000 
502.000000	926.445000 
502.500000	865.771000 
503.000000	804.681000 
503.500000	686.410999 
504.000000	676.149000 
504.500000	569.069000 
505.000000	555.996000 
505.500000	495.695000 
506.000000	456.223000 
506.500000	416.019000 
507.000000	366.069000 
507.500000	330.868000 
508.000000	308.924000 
508.500000	283.782000 
509.000000	259.744000 
509.500000	237.033000 
510.000000	209.794000 
510.500000	192.672000 
511.000000	177.402000 
511.500000	168.015000 
512.000000	153.125000 
512.500000	138.792000 
513.000000	134.072000 
513.500000	123.615000 
514.000000	109.390000 
514.500000	103.264000 
515.000000	97.031000  
515.500000	93.539000  
516.000000	88.639000  
516.500000	85.333000  
517.000000	85.337999  
517.500000	83.078999  
518.000000	83.449000  
518.500000	86.296000  
519.000000	83.334000  
519.500000	87.033000  
520.000000	88.986999  
520.500000	89.697999  
521.000000	91.545000  
521.500000	91.391000  
522.000000	95.022000  
522.500000	95.552000  
523.000000	100.314000 
523.500000	100.931000 
524.000000	105.817000 
524.500000	106.654000 
525.000000	109.891000 
525.500000	111.763000 
526.000000	116.297000 
526.500000	119.189000 
527.000000	120.866000 
527.500000	127.137000 
528.000000	129.639000 
528.500000	133.036000 
529.000000	137.465000 
529.500000	143.043000 
530.000000	142.844000 
530.500000	149.420000 
531.000000	152.369000 
531.500000	153.842000 
532.000000	160.019000 
532.500000	163.227000 
533.000000	165.773000 
533.500000	168.894000 
534.000000	174.615000 
534.500000	181.319000 
535.000000	180.447000 
535.500000	185.568000 
536.000000	187.311000 
536.500000	188.642000 
537.000000	193.093000 
537.500000	192.401000 
538.000000	192.633000 
538.500000	193.367000 
539.000000	194.981000 
539.500000	190.844000 
540.000000	187.667000 
540.500000	185.688000 
541.000000	181.952000 
541.500000	176.522000 
542.000000	176.388000 
542.500000	168.759000 
543.000000	164.946000 
543.500000	158.167000 
544.000000	151.498000 
544.500000	143.561000 
545.000000	140.215000 
545.500000	133.729000 
546.000000	127.205000 
546.500000	118.575000 
547.000000	113.685000 
547.500000	105.719000 
548.000000	102.065000 
548.500000	95.566000  

