PE FL                   SPECTRUM    ASCII       PEDS        1.60        
  -1
0149FA~1.SP
19/01/24
13:05:36.00
19/01/24
13:05:36.00


548.500000
1









LS45
290.00
10.00
10.00
SCAN
1
16
100
100
0
600
0
1
0
1
7
ON
550 545 
0 0 0
#HDR
-1
-1
#GR
NM
INT 
0.00002384185791015625
0.0
230.000000
0.500000
638
8
978.348000
0.829000
#DATA
230.000000	0.829000   
230.500000	1.078000   
231.000000	1.110000   
231.500000	0.972000   
232.000000	1.017000   
232.500000	1.151000   
233.000000	1.323000   
233.500000	1.208000   
234.000000	1.195000   
234.500000	1.324000   
235.000000	1.131000   
235.500000	1.217000   
236.000000	1.198000   
236.500000	1.361000   
237.000000	1.067000   
237.500000	1.267000   
238.000000	1.361000   
238.500000	1.366000   
239.000000	1.343000   
239.500000	1.258000   
240.000000	1.351000   
240.500000	1.464000   
241.000000	1.200000   
241.500000	1.236000   
242.000000	1.171000   
242.500000	1.280000   
243.000000	1.386000   
243.500000	1.674000   
244.000000	1.411000   
244.500000	1.438000   
245.000000	1.380000   
245.500000	1.458000   
246.000000	1.404000   
246.500000	1.456000   
247.000000	1.297000   
247.500000	1.512000   
248.000000	1.659000   
248.500000	1.506000   
249.000000	1.413000   
249.500000	1.429000   
250.000000	1.494000   
250.500000	1.704000   
251.000000	1.821000   
251.500000	1.788000   
252.000000	1.966000   
252.500000	1.857000   
253.000000	1.831000   
253.500000	1.848000   
254.000000	2.043000   
254.500000	2.115000   
255.000000	2.186000   
255.500000	2.535000   
256.000000	2.014000   
256.500000	2.246000   
257.000000	2.332000   
257.500000	2.259000   
258.000000	2.757000   
258.500000	2.718000   
259.000000	2.704000   
259.500000	2.998000   
260.000000	2.895000   
260.500000	2.741000   
261.000000	2.947000   
261.500000	2.957000   
262.000000	2.998000   
262.500000	3.429000   
263.000000	3.518000   
263.500000	3.618000   
264.000000	3.756000   
264.500000	3.594000   
265.000000	3.874000   
265.500000	4.220000   
266.000000	4.718000   
266.500000	5.040000   
267.000000	5.182000   
267.500000	5.761000   
268.000000	7.353000   
268.500000	8.654999   
269.000000	10.086000  
269.500000	13.019000  
270.000000	16.963000  
270.500000	20.371000  
271.000000	24.751000  
271.500000	32.998000  
272.000000	41.534000  
272.500000	54.603000  
273.000000	66.364000  
273.500000	82.514000  
274.000000	96.563999  
274.500000	119.165000 
275.000000	139.506000 
275.500000	169.373000 
276.000000	197.573000 
276.500000	233.163000 
277.000000	268.387000 
277.500000	302.887000 
278.000000	349.050000 
278.500000	381.052000 
279.000000	426.054000 
279.500000	467.010000 
280.000000	524.379000 
280.500000	565.951000 
281.000000	613.630000 
281.500000	657.611000 
282.000000	703.659000 
282.500000	747.617000 
283.000000	787.909000 
283.500000	828.599000 
284.000000	857.940000 
284.500000	890.378000 
285.000000	914.422000 
285.500000	937.937000 
286.000000	951.995000 
286.500000	964.823000 
287.000000	974.995000 
287.500000	978.348000 
288.000000	977.296000 
288.500000	967.494000 
289.000000	958.371000 
289.500000	945.622000 
290.000000	928.980000 
290.500000	910.732999 
291.000000	878.499000 
291.500000	852.341000 
292.000000	812.504000 
292.500000	785.752000 
293.000000	739.251000 
293.500000	704.245000 
294.000000	660.598000 
294.500000	627.337000 
295.000000	582.904000 
295.500000	533.256000 
296.000000	493.845000 
296.500000	447.307000 
297.000000	406.521000 
297.500000	367.414000 
298.000000	333.237000 
298.500000	294.125000 
299.000000	266.917000 
299.500000	230.896000 
300.000000	203.006000 
300.500000	177.636000 
301.000000	157.572000 
301.500000	138.735000 
302.000000	124.050000 
302.500000	111.371000 
303.000000	96.151000  
303.500000	88.230999  
304.000000	79.711000  
304.500000	77.545000  
305.000000	72.114999  
305.500000	68.669000  
306.000000	67.208000  
306.500000	67.485000  
307.000000	69.882000  
307.500000	71.797000  
308.000000	73.860000  
308.500000	79.298000  
309.000000	81.171000  
309.500000	87.554000  
310.000000	92.081000  
310.500000	98.619000  
311.000000	103.078000 
311.500000	108.362000 
312.000000	112.177000 
312.500000	118.851000 
313.000000	124.979000 
313.500000	130.354000 
314.000000	134.229000 
314.500000	139.630000 
315.000000	145.292000 
315.500000	152.724000 
316.000000	153.598000 
316.500000	158.447000 
317.000000	161.240000 
317.500000	165.532000 
318.000000	169.528000 
318.500000	169.936000 
319.000000	172.367000 
319.500000	173.900000 
320.000000	174.982000 
320.500000	176.971000 
321.000000	175.907000 
321.500000	176.542000 
322.000000	172.690000 
322.500000	174.632000 
323.000000	172.697000 
323.500000	172.666000 
324.000000	170.394000 
324.500000	168.921000 
325.000000	166.648000 
325.500000	166.082000 
326.000000	164.217000 
326.500000	160.713000 
327.000000	158.314000 
327.500000	156.182000 
328.000000	156.752000 
328.500000	155.669000 
329.000000	151.062000 
329.500000	150.752000 
330.000000	150.811000 
330.500000	148.611000 
331.000000	150.916000 
331.500000	149.039000 
332.000000	149.970000 
332.500000	147.870000 
333.000000	149.841000 
333.500000	146.421000 
334.000000	148.562000 
334.500000	150.500000 
335.000000	149.673000 
335.500000	151.083000 
336.000000	152.091000 
336.500000	153.316000 
337.000000	152.085000 
337.500000	152.765000 
338.000000	156.981000 
338.500000	158.886000 
339.000000	158.541000 
339.500000	156.250000 
340.000000	161.328000 
340.500000	162.674000 
341.000000	163.619000 
341.500000	164.680000 
342.000000	167.213000 
342.500000	168.537000 
343.000000	170.156000 
343.500000	169.948000 
344.000000	172.148000 
344.500000	172.500000 
345.000000	173.944000 
345.500000	174.826000 
346.000000	174.822000 
346.500000	178.266000 
347.000000	179.603000 
347.500000	180.412000 
348.000000	181.355000 
348.500000	182.477000 
349.000000	182.776000 
349.500000	184.018000 
350.000000	185.479000 
350.500000	185.944000 
351.000000	187.541000 
351.500000	184.780000 
352.000000	184.961000 
352.500000	185.464000 
353.000000	186.190000 
353.500000	188.599000 
354.000000	186.264000 
354.500000	188.798000 
355.000000	187.230000 
355.500000	186.495000 
356.000000	187.674000 
356.500000	187.505000 
357.000000	184.411000 
357.500000	185.619000 
358.000000	185.763000 
358.500000	186.304000 
359.000000	186.487000 
359.500000	186.580000 
360.000000	186.164000 
360.500000	183.857000 
361.000000	182.460000 
361.500000	182.135000 
362.000000	179.660000 
362.500000	178.974000 
363.000000	181.753000 
363.500000	178.793000 
364.000000	179.162000 
364.500000	180.709000 
365.000000	177.696000 
365.500000	177.167000 
366.000000	179.486000 
366.500000	177.116000 
367.000000	174.800000 
367.500000	175.516000 
368.000000	172.698000 
368.500000	172.150000 
369.000000	174.063000 
369.500000	171.116000 
370.000000	172.295000 
370.500000	171.033000 
371.000000	169.761000 
371.500000	172.558000 
372.000000	169.550000 
372.500000	168.200000 
373.000000	170.541000 
373.500000	168.336000 
374.000000	168.198000 
374.500000	165.199000 
375.000000	168.526000 
375.500000	165.309000 
376.000000	165.907000 
376.500000	165.803000 
377.000000	161.394000 
377.500000	160.592000 
378.000000	160.659000 
378.500000	160.079000 
379.000000	158.704000 
379.500000	158.967000 
380.000000	157.301000 
380.500000	157.340000 
381.000000	158.022000 
381.500000	155.427000 
382.000000	158.207000 
382.500000	152.979000 
383.000000	152.247000 
383.500000	150.931000 
384.000000	152.057000 
384.500000	151.437000 
385.000000	150.299000 
385.500000	148.365000 
386.000000	145.643000 
386.500000	147.390000 
387.000000	145.953000 
387.500000	142.566000 
388.000000	141.625000 
388.500000	141.700000 
389.000000	140.327000 
389.500000	138.845000 
390.000000	138.446000 
390.500000	137.000000 
391.000000	137.339000 
391.500000	138.408000 
392.000000	135.277000 
392.500000	135.432000 
393.000000	133.557000 
393.500000	134.316000 
394.000000	132.112000 
394.500000	129.563000 
395.000000	131.138000 
395.500000	131.542000 
396.000000	131.103000 
396.500000	127.986000 
397.000000	128.012000 
397.500000	126.862000 
398.000000	126.638000 
398.500000	126.325000 
399.000000	126.610000 
399.500000	125.261000 
400.000000	124.723000 
400.500000	124.658000 
401.000000	124.300000 
401.500000	121.361000 
402.000000	120.728000 
402.500000	120.919000 
403.000000	119.521000 
403.500000	119.685000 
404.000000	120.481000 
404.500000	121.243000 
405.000000	118.161000 
405.500000	118.581000 
406.000000	116.326000 
406.500000	117.278000 
407.000000	117.156000 
407.500000	112.549000 
408.000000	112.886000 
408.500000	113.921000 
409.000000	113.380000 
409.500000	111.935000 
410.000000	110.847000 
410.500000	110.164000 
411.000000	109.906000 
411.500000	111.180000 
412.000000	111.120000 
412.500000	108.354000 
413.000000	108.111000 
413.500000	106.740000 
414.000000	107.106000 
414.500000	105.958000 
415.000000	105.048000 
415.500000	102.646000 
416.000000	103.272000 
416.500000	103.148000 
417.000000	102.091000 
417.500000	102.080000 
418.000000	99.334999  
418.500000	99.191000  
419.000000	97.746000  
419.500000	95.422000  
420.000000	96.142000  
420.500000	96.766000  
421.000000	95.587000  
421.500000	94.154000  
422.000000	93.398000  
422.500000	94.808000  
423.000000	93.438999  
423.500000	90.524000  
424.000000	90.599000  
424.500000	90.045000  
425.000000	90.424000  
425.500000	89.605999  
426.000000	88.337999  
426.500000	87.047000  
427.000000	87.536000  
427.500000	86.584000  
428.000000	89.651000  
428.500000	86.554000  
429.000000	86.410000  
429.500000	85.078999  
430.000000	83.590999  
430.500000	84.260000  
431.000000	83.404000  
431.500000	82.444999  
432.000000	82.416000  
432.500000	80.813999  
433.000000	81.989000  
433.500000	80.648000  
434.000000	81.703999  
434.500000	80.358999  
435.000000	79.443000  
435.500000	79.136000  
436.000000	79.173000  
436.500000	79.983999  
437.000000	79.836000  
437.500000	80.686000  
438.000000	78.818000  
438.500000	78.693000  
439.000000	78.553000  
439.500000	76.215999  
440.000000	75.754000  
440.500000	76.651000  
441.000000	77.941000  
441.500000	76.512000  
442.000000	76.998000  
442.500000	75.688999  
443.000000	75.575000  
443.500000	73.806000  
444.000000	73.138000  
444.500000	72.789000  
445.000000	73.980999  
445.500000	73.837999  
446.000000	74.406000  
446.500000	71.988000  
447.000000	71.956999  
447.500000	71.892000  
448.000000	71.324000  
448.500000	70.602999  
449.000000	69.983000  
449.500000	69.036000  
450.000000	68.276000  
450.500000	70.418000  
451.000000	68.135000  
451.500000	67.184000  
452.000000	65.996000  
452.500000	66.765000  
453.000000	66.355999  
453.500000	66.876000  
454.000000	65.465999  
454.500000	64.898000  
455.000000	65.101000  
455.500000	64.503000  
456.000000	64.985000  
456.500000	63.023000  
457.000000	63.152000  
457.500000	61.636000  
458.000000	62.302000  
458.500000	62.468000  
459.000000	62.713000  
459.500000	62.314000  
460.000000	61.273000  
460.500000	60.260000  
461.000000	59.769000  
461.500000	60.622000  
462.000000	59.218000  
462.500000	58.312000  
463.000000	58.935000  
463.500000	57.205000  
464.000000	56.318000  
464.500000	54.796000  
465.000000	56.100000  
465.500000	56.802000  
466.000000	56.127000  
466.500000	55.255000  
467.000000	55.313000  
467.500000	54.939000  
468.000000	53.732000  
468.500000	54.412000  
469.000000	53.873000  
469.500000	55.569000  
470.000000	53.546000  
470.500000	54.209000  
471.000000	52.636000  
471.500000	53.493000  
472.000000	52.941000  
472.500000	52.450000  
473.000000	51.806000  
473.500000	51.098000  
474.000000	51.108000  
474.500000	50.856000  
475.000000	50.494000  
475.500000	50.881000  
476.000000	50.211000  
476.500000	49.327000  
477.000000	49.762000  
477.500000	49.530000  
478.000000	49.261000  
478.500000	49.059000  
479.000000	47.858000  
479.500000	48.245000  
480.000000	48.327000  
480.500000	48.549000  
481.000000	47.942000  
481.500000	48.591000  
482.000000	48.433000  
482.500000	47.891000  
483.000000	47.793000  
483.500000	46.833000  
484.000000	46.403000  
484.500000	46.825000  
485.000000	45.049000  
485.500000	46.112000  
486.000000	45.001000  
486.500000	45.827000  
487.000000	46.477000  
487.500000	44.848000  
488.000000	44.922000  
488.500000	45.186000  
489.000000	45.989000  
489.500000	45.365000  
490.000000	47.480000  
490.500000	44.292000  
491.000000	44.149000  
491.500000	43.187000  
492.000000	41.480000  
492.500000	43.019000  
493.000000	43.397000  
493.500000	43.474000  
494.000000	43.228000  
494.500000	42.121000  
495.000000	42.731000  
495.500000	41.885000  
496.000000	41.245000  
496.500000	41.799000  
497.000000	41.585000  
497.500000	41.214000  
498.000000	40.501000  
498.500000	40.774000  
499.000000	40.680000  
499.500000	39.638000  
500.000000	40.359000  
500.500000	40.022000  
501.000000	38.630000  
501.500000	38.348000  
502.000000	39.672000  
502.500000	39.285000  
503.000000	38.003000  
503.500000	38.054000  
504.000000	37.586000  
504.500000	37.413000  
505.000000	36.238000  
505.500000	37.607000  
506.000000	36.816000  
506.500000	37.064000  
507.000000	36.286000  
507.500000	36.480000  
508.000000	35.949000  
508.500000	35.927000  
509.000000	35.226000  
509.500000	34.822000  
510.000000	36.011000  
510.500000	35.592000  
511.000000	35.266000  
511.500000	34.974000  
512.000000	34.360000  
512.500000	34.136000  
513.000000	34.246000  
513.500000	33.737000  
514.000000	33.380000  
514.500000	33.158000  
515.000000	33.162000  
515.500000	32.567000  
516.000000	34.046000  
516.500000	33.015000  
517.000000	32.682000  
517.500000	32.337000  
518.000000	31.956000  
518.500000	31.275000  
519.000000	31.590000  
519.500000	31.847000  
520.000000	32.052000  
520.500000	31.051000  
521.000000	30.645000  
521.500000	30.695000  
522.000000	31.028000  
522.500000	30.189000  
523.000000	29.832000  
523.500000	29.787000  
524.000000	30.020000  
524.500000	29.208000  
525.000000	29.975000  
525.500000	30.383000  
526.000000	28.999000  
526.500000	27.438000  
527.000000	27.287000  
527.500000	28.346000  
528.000000	27.548000  
528.500000	27.386000  
529.000000	26.855000  
529.500000	26.538000  
530.000000	26.652000  
530.500000	26.096000  
531.000000	27.123000  
531.500000	26.768000  
532.000000	25.766000  
532.500000	24.838000  
533.000000	25.147000  
533.500000	24.786000  
534.000000	24.108000  
534.500000	23.790000  
535.000000	25.081000  
535.500000	23.476000  
536.000000	23.948000  
536.500000	23.538000  
537.000000	23.560000  
537.500000	23.475000  
538.000000	24.245000  
538.500000	24.079000  
539.000000	23.710000  
539.500000	22.850000  
540.000000	22.295000  
540.500000	23.136000  
541.000000	23.617000  
541.500000	22.283000  
542.000000	21.577000  
542.500000	22.652000  
543.000000	22.025000  
543.500000	21.729000  
544.000000	21.292000  
544.500000	21.893000  
545.000000	22.187000  
545.500000	22.287000  
546.000000	21.442000  
546.500000	21.146000  
547.000000	22.270000  
547.500000	22.534000  
548.000000	22.181000  
548.500000	22.241000  

