PE FL                   SPECTRUM    ASCII       PEDS        1.60        
  -1
0155FE~1.SP
19/01/24
13:01:52.00
19/01/24
13:01:52.00


548.500000
1









LS45
265.00
10.00
10.00
SCAN
1
16
100
100
0
600
0
1
0
1
7
ON
550 545 
0 0 0
#HDR
-1
-1
#GR
NM
INT 
0.00002384185791015625
0.0
230.000000
0.500000
638
8
999.999000
1.390000
#DATA
230.000000	1.449000   
230.500000	1.390000   
231.000000	1.466000   
231.500000	1.614000   
232.000000	1.657000   
232.500000	1.717000   
233.000000	1.757000   
233.500000	1.704000   
234.000000	1.760000   
234.500000	1.796000   
235.000000	1.758000   
235.500000	1.813000   
236.000000	1.759000   
236.500000	1.858000   
237.000000	1.793000   
237.500000	1.938000   
238.000000	2.039000   
238.500000	2.023000   
239.000000	1.858000   
239.500000	2.221000   
240.000000	2.606000   
240.500000	2.281000   
241.000000	2.095000   
241.500000	2.479000   
242.000000	2.760000   
242.500000	2.656000   
243.000000	3.204000   
243.500000	3.545000   
244.000000	3.471000   
244.500000	4.159000   
245.000000	4.849000   
245.500000	6.985000   
246.000000	8.981000   
246.500000	11.780000  
247.000000	15.057000  
247.500000	19.300000  
248.000000	24.160000  
248.500000	32.469000  
249.000000	40.249000  
249.500000	51.631000  
250.000000	59.408000  
250.500000	72.849999  
251.000000	88.409000  
251.500000	107.088000 
252.000000	120.731000 
252.500000	137.156000 
253.000000	155.516000 
253.500000	170.244000 
254.000000	200.551000 
254.500000	218.022000 
255.000000	247.410000 
255.500000	267.062000 
256.000000	303.054000 
256.500000	330.314000 
257.000000	358.595000 
257.500000	391.031000 
258.000000	419.258000 
258.500000	444.752000 
259.000000	463.688000 
259.500000	484.489000 
260.000000	507.366000 
260.500000	520.336000 
261.000000	533.380000 
261.500000	551.250000 
262.000000	564.854000 
262.500000	576.914000 
263.000000	578.530000 
263.500000	576.462000 
264.000000	577.999000 
264.500000	579.476000 
265.000000	570.373000 
265.500000	559.516000 
266.000000	549.485000 
266.500000	541.346000 
267.000000	512.440000 
267.500000	500.651000 
268.000000	475.875000 
268.500000	451.934000 
269.000000	417.363000 
269.500000	393.374000 
270.000000	371.829000 
270.500000	347.416000 
271.000000	326.117000 
271.500000	297.300000 
272.000000	271.487000 
272.500000	240.877000 
273.000000	222.276000 
273.500000	196.027000 
274.000000	181.398000 
274.500000	162.740000 
275.000000	147.265000 
275.500000	129.233000 
276.000000	113.048000 
276.500000	100.425000 
277.000000	90.429000  
277.500000	82.916000  
278.000000	74.462000  
278.500000	70.876000  
279.000000	65.346000  
279.500000	63.013000  
280.000000	61.582000  
280.500000	61.958000  
281.000000	63.005000  
281.500000	65.680000  
282.000000	69.369000  
282.500000	70.470000  
283.000000	72.166000  
283.500000	75.221000  
284.000000	78.397000  
284.500000	79.898000  
285.000000	84.114000  
285.500000	86.376000  
286.000000	88.828999  
286.500000	90.596999  
287.000000	91.492999  
287.500000	93.081000  
288.000000	94.492999  
288.500000	95.503000  
289.000000	96.104000  
289.500000	98.654000  
290.000000	97.656000  
290.500000	97.700999  
291.000000	96.075999  
291.500000	96.616000  
292.000000	95.447999  
292.500000	94.818000  
293.000000	92.303000  
293.500000	91.453999  
294.000000	88.095000  
294.500000	84.807000  
295.000000	84.837000  
295.500000	84.432000  
296.000000	81.549000  
296.500000	78.673000  
297.000000	74.281000  
297.500000	73.033000  
298.000000	71.822000  
298.500000	67.575999  
299.000000	64.718999  
299.500000	62.073000  
300.000000	61.157000  
300.500000	57.442000  
301.000000	58.016000  
301.500000	54.095000  
302.000000	52.325000  
302.500000	53.462000  
303.000000	50.693000  
303.500000	49.147000  
304.000000	47.259000  
304.500000	46.340000  
305.000000	45.844000  
305.500000	45.928000  
306.000000	44.539000  
306.500000	44.326000  
307.000000	45.406000  
307.500000	45.532000  
308.000000	45.680000  
308.500000	46.207000  
309.000000	46.126000  
309.500000	45.872000  
310.000000	48.167000  
310.500000	48.270000  
311.000000	48.388000  
311.500000	50.685000  
312.000000	51.722000  
312.500000	51.666000  
313.000000	52.959000  
313.500000	54.435000  
314.000000	55.392000  
314.500000	55.113000  
315.000000	55.016000  
315.500000	58.902000  
316.000000	60.658000  
316.500000	60.555000  
317.000000	61.607000  
317.500000	63.366000  
318.000000	64.378000  
318.500000	65.124000  
319.000000	66.893000  
319.500000	68.851000  
320.000000	69.051000  
320.500000	70.388000  
321.000000	72.746000  
321.500000	73.551000  
322.000000	77.358999  
322.500000	76.677000  
323.000000	78.315000  
323.500000	79.546000  
324.000000	81.831000  
324.500000	84.006000  
325.000000	85.614999  
325.500000	86.197999  
326.000000	90.997000  
326.500000	90.506000  
327.000000	93.544000  
327.500000	95.656000  
328.000000	97.172000  
328.500000	98.022000  
329.000000	100.286000 
329.500000	105.370000 
330.000000	102.371000 
330.500000	103.643000 
331.000000	107.163000 
331.500000	108.779000 
332.000000	106.923000 
332.500000	111.581000 
333.000000	111.484000 
333.500000	114.690000 
334.000000	117.234000 
334.500000	117.728000 
335.000000	118.864000 
335.500000	121.300000 
336.000000	120.861000 
336.500000	121.749000 
337.000000	121.042000 
337.500000	124.137000 
338.000000	127.550000 
338.500000	127.344000 
339.000000	127.116000 
339.500000	129.672000 
340.000000	129.969000 
340.500000	132.679000 
341.000000	131.529000 
341.500000	131.268000 
342.000000	135.245000 
342.500000	134.898000 
343.000000	133.989000 
343.500000	137.968000 
344.000000	137.819000 
344.500000	140.183000 
345.000000	140.224000 
345.500000	140.662000 
346.000000	143.572000 
346.500000	141.679000 
347.000000	141.511000 
347.500000	141.620000 
348.000000	145.357000 
348.500000	145.946000 
349.000000	147.605000 
349.500000	149.967000 
350.000000	148.200000 
350.500000	147.737000 
351.000000	146.924000 
351.500000	144.928000 
352.000000	147.699000 
352.500000	148.053000 
353.000000	147.496000 
353.500000	148.620000 
354.000000	146.563000 
354.500000	147.889000 
355.000000	149.787000 
355.500000	149.768000 
356.000000	148.691000 
356.500000	145.648000 
357.000000	146.550000 
357.500000	149.497000 
358.000000	146.659000 
358.500000	145.450000 
359.000000	147.581000 
359.500000	146.009000 
360.000000	146.203000 
360.500000	145.301000 
361.000000	143.431000 
361.500000	145.308000 
362.000000	143.295000 
362.500000	142.018000 
363.000000	143.734000 
363.500000	140.888000 
364.000000	140.576000 
364.500000	141.478000 
365.000000	138.633000 
365.500000	137.132000 
366.000000	136.693000 
366.500000	139.149000 
367.000000	135.957000 
367.500000	138.360000 
368.000000	136.969000 
368.500000	135.907000 
369.000000	134.662000 
369.500000	136.105000 
370.000000	137.100000 
370.500000	137.994000 
371.000000	133.063000 
371.500000	129.163000 
372.000000	130.815000 
372.500000	132.936000 
373.000000	132.481000 
373.500000	130.051000 
374.000000	129.856000 
374.500000	127.781000 
375.000000	128.797000 
375.500000	126.297000 
376.000000	127.516000 
376.500000	125.181000 
377.000000	127.406000 
377.500000	129.094000 
378.000000	125.408000 
378.500000	125.301000 
379.000000	123.743000 
379.500000	120.737000 
380.000000	123.734000 
380.500000	121.029000 
381.000000	117.426000 
381.500000	119.935000 
382.000000	120.515000 
382.500000	117.287000 
383.000000	118.521000 
383.500000	116.516000 
384.000000	116.412000 
384.500000	113.982000 
385.000000	113.518000 
385.500000	113.814000 
386.000000	113.936000 
386.500000	111.560000 
387.000000	110.424000 
387.500000	109.803000 
388.000000	109.882000 
388.500000	109.626000 
389.000000	109.081000 
389.500000	108.638000 
390.000000	106.401000 
390.500000	105.248000 
391.000000	105.619000 
391.500000	105.671000 
392.000000	103.555000 
392.500000	101.739000 
393.000000	102.764000 
393.500000	102.573000 
394.000000	101.117000 
394.500000	102.407000 
395.000000	101.919000 
395.500000	100.814000 
396.000000	99.807000  
396.500000	99.947000  
397.000000	100.197000 
397.500000	100.081000 
398.000000	98.974999  
398.500000	99.857000  
399.000000	97.287000  
399.500000	95.608000  
400.000000	97.114999  
400.500000	97.355999  
401.000000	95.885000  
401.500000	95.474999  
402.000000	94.840999  
402.500000	92.846999  
403.000000	95.174000  
403.500000	95.878000  
404.000000	92.318000  
404.500000	93.242000  
405.000000	93.534000  
405.500000	94.506000  
406.000000	91.708000  
406.500000	93.226000  
407.000000	92.751000  
407.500000	91.242000  
408.000000	92.153000  
408.500000	91.508000  
409.000000	91.421000  
409.500000	92.879000  
410.000000	91.822000  
410.500000	92.786000  
411.000000	90.875000  
411.500000	90.908000  
412.000000	92.142000  
412.500000	92.855999  
413.000000	94.358999  
413.500000	92.989999  
414.000000	91.507000  
414.500000	90.651000  
415.000000	91.756000  
415.500000	92.691999  
416.000000	91.938999  
416.500000	92.927000  
417.000000	95.394000  
417.500000	94.732000  
418.000000	93.971000  
418.500000	92.250000  
419.000000	93.334000  
419.500000	93.363000  
420.000000	95.081999  
420.500000	94.781000  
421.000000	94.057000  
421.500000	93.041000  
422.000000	95.495000  
422.500000	97.584999  
423.000000	96.211000  
423.500000	97.230999  
424.000000	95.586000  
424.500000	97.056000  
425.000000	97.403000  
425.500000	95.633000  
426.000000	97.944999  
426.500000	98.379000  
427.000000	99.941999  
427.500000	98.998000  
428.000000	100.701000 
428.500000	99.854000  
429.000000	100.072000 
429.500000	101.632000 
430.000000	104.356000 
430.500000	102.957000 
431.000000	103.024000 
431.500000	103.789000 
432.000000	106.215000 
432.500000	103.474000 
433.000000	104.849000 
433.500000	104.844000 
434.000000	105.426000 
434.500000	105.076000 
435.000000	104.601000 
435.500000	107.739000 
436.000000	106.864000 
436.500000	110.121000 
437.000000	108.792000 
437.500000	109.491000 
438.000000	108.622000 
438.500000	108.382000 
439.000000	109.078000 
439.500000	110.527000 
440.000000	108.908000 
440.500000	111.665000 
441.000000	112.903000 
441.500000	110.523000 
442.000000	111.757000 
442.500000	112.546000 
443.000000	111.623000 
443.500000	109.845000 
444.000000	110.941000 
444.500000	111.711000 
445.000000	111.113000 
445.500000	112.278000 
446.000000	113.590000 
446.500000	111.654000 
447.000000	112.360000 
447.500000	112.511000 
448.000000	109.460000 
448.500000	110.536000 
449.000000	110.541000 
449.500000	111.313000 
450.000000	112.769000 
450.500000	113.234000 
451.000000	110.951000 
451.500000	111.792000 
452.000000	111.816000 
452.500000	112.963000 
453.000000	112.155000 
453.500000	111.567000 
454.000000	110.074000 
454.500000	110.937000 
455.000000	109.692000 
455.500000	108.331000 
456.000000	108.806000 
456.500000	107.584000 
457.000000	107.278000 
457.500000	107.978000 
458.000000	106.149000 
458.500000	106.405000 
459.000000	107.909000 
459.500000	106.390000 
460.000000	106.194000 
460.500000	104.850000 
461.000000	104.617000 
461.500000	105.088000 
462.000000	104.613000 
462.500000	105.697000 
463.000000	105.486000 
463.500000	105.593000 
464.000000	105.253000 
464.500000	102.202000 
465.000000	104.068000 
465.500000	103.603000 
466.000000	104.142000 
466.500000	103.610000 
467.000000	102.150000 
467.500000	99.803000  
468.000000	99.489000  
468.500000	100.854000 
469.000000	100.727000 
469.500000	100.442000 
470.000000	98.924000  
470.500000	100.855000 
471.000000	100.874000 
471.500000	100.114000 
472.000000	100.272000 
472.500000	100.853000 
473.000000	100.029000 
473.500000	99.200000  
474.000000	99.121000  
474.500000	99.090999  
475.000000	100.161000 
475.500000	100.446000 
476.000000	101.464000 
476.500000	100.283000 
477.000000	100.678000 
477.500000	97.610000  
478.000000	100.081000 
478.500000	101.083000 
479.000000	99.979000  
479.500000	100.551000 
480.000000	100.004000 
480.500000	99.514000  
481.000000	100.102000 
481.500000	99.027000  
482.000000	98.423000  
482.500000	99.763000  
483.000000	101.220000 
483.500000	99.830000  
484.000000	98.619000  
484.500000	97.619000  
485.000000	98.270000  
485.500000	100.271000 
486.000000	99.873000  
486.500000	102.396000 
487.000000	100.052000 
487.500000	100.064000 
488.000000	98.882000  
488.500000	99.233000  
489.000000	102.371000 
489.500000	103.664000 
490.000000	103.045000 
490.500000	101.902000 
491.000000	100.655000 
491.500000	101.630000 
492.000000	103.546000 
492.500000	101.912000 
493.000000	103.844000 
493.500000	103.015000 
494.000000	100.711000 
494.500000	98.867999  
495.000000	100.869000 
495.500000	101.692000 
496.000000	101.045000 
496.500000	99.170000  
497.000000	102.529000 
497.500000	104.163000 
498.000000	100.952000 
498.500000	101.434000 
499.000000	102.672000 
499.500000	104.043000 
500.000000	102.752000 
500.500000	103.081000 
501.000000	103.521000 
501.500000	104.661000 
502.000000	106.786000 
502.500000	108.234000 
503.000000	111.239000 
503.500000	112.997000 
504.000000	115.116000 
504.500000	121.253000 
505.000000	125.829000 
505.500000	134.416000 
506.000000	139.930000 
506.500000	153.255000 
507.000000	167.654000 
507.500000	181.663000 
508.000000	200.598000 
508.500000	221.216000 
509.000000	253.448000 
509.500000	281.804000 
510.000000	335.320000 
510.500000	369.170000 
511.000000	413.738000 
511.500000	456.591000 
512.000000	513.974000 
512.500000	622.789000 
513.000000	630.832000 
513.500000	732.035000 
514.000000	739.611000 
514.500000	860.580000 
515.000000	868.912000 
515.500000	973.586000 
516.000000	981.920000 
516.500000	999.999000 
517.000000	999.999000 
517.500000	999.999000 
518.000000	999.999000 
518.500000	999.999000 
519.000000	999.999000 
519.500000	999.999000 
520.000000	999.999000 
520.500000	999.999000 
521.000000	999.999000 
521.500000	999.999000 
522.000000	999.999000 
522.500000	999.999000 
523.000000	999.999000 
523.500000	999.999000 
524.000000	999.999000 
524.500000	999.999000 
525.000000	999.999000 
525.500000	999.999000 
526.000000	999.999000 
526.500000	999.999000 
527.000000	999.999000 
527.500000	999.999000 
528.000000	999.999000 
528.500000	999.999000 
529.000000	999.999000 
529.500000	999.999000 
530.000000	999.999000 
530.500000	999.999000 
531.000000	999.999000 
531.500000	999.999000 
532.000000	999.999000 
532.500000	999.999000 
533.000000	999.999000 
533.500000	999.999000 
534.000000	999.999000 
534.500000	999.999000 
535.000000	999.999000 
535.500000	999.999000 
536.000000	999.999000 
536.500000	999.999000 
537.000000	999.999000 
537.500000	999.999000 
538.000000	999.999000 
538.500000	999.999000 
539.000000	999.999000 
539.500000	999.999000 
540.000000	915.783000 
540.500000	909.506000 
541.000000	801.101000 
541.500000	795.152000 
542.000000	704.992000 
542.500000	694.293000 
543.000000	644.199000 
543.500000	605.745000 
544.000000	555.857999 
544.500000	496.504000 
545.000000	456.947000 
545.500000	415.002000 
546.000000	381.515000 
546.500000	342.380000 
547.000000	306.320000 
547.500000	278.264000 
548.000000	253.103000 
548.500000	227.005000 

