PE FL                   SPECTRUM    ASCII       PEDS        1.60        
  -1
0124SC~3.SP
19/01/24
13:34:15.00
19/01/24
13:34:15.00


548.500000
1









LS45
480.00
10.00
10.00
SCAN
1
16
100
100
0
600
0
1
0
1
7
ON
550 545 
0 0 0
#HDR
-1
-1
#GR
NM
INT 
0.00002384185791015625
0.0
230.000000
0.500000
638
8
647.691000
0.092000
#DATA
230.000000	0.151000   
230.500000	0.106000   
231.000000	0.106000   
231.500000	0.107000   
232.000000	0.109000   
232.500000	0.119000   
233.000000	0.161000   
233.500000	0.126000   
234.000000	0.184000   
234.500000	0.228000   
235.000000	0.262000   
235.500000	0.273000   
236.000000	0.225000   
236.500000	0.189000   
237.000000	0.241000   
237.500000	0.197000   
238.000000	0.268000   
238.500000	0.297000   
239.000000	0.261000   
239.500000	0.250000   
240.000000	0.230000   
240.500000	0.256000   
241.000000	0.234000   
241.500000	0.280000   
242.000000	0.276000   
242.500000	0.196000   
243.000000	0.180000   
243.500000	0.235000   
244.000000	0.219000   
244.500000	0.237000   
245.000000	0.193000   
245.500000	0.161000   
246.000000	0.126000   
246.500000	0.153000   
247.000000	0.159000   
247.500000	0.160000   
248.000000	0.152000   
248.500000	0.161000   
249.000000	0.148000   
249.500000	0.151000   
250.000000	0.092000   
250.500000	0.107000   
251.000000	0.136000   
251.500000	0.177000   
252.000000	0.163000   
252.500000	0.164000   
253.000000	0.189000   
253.500000	0.189000   
254.000000	0.195000   
254.500000	0.222000   
255.000000	0.129000   
255.500000	0.209000   
256.000000	0.248000   
256.500000	0.252000   
257.000000	0.172000   
257.500000	0.243000   
258.000000	0.304000   
258.500000	0.321000   
259.000000	0.244000   
259.500000	0.243000   
260.000000	0.257000   
260.500000	0.255000   
261.000000	0.266000   
261.500000	0.286000   
262.000000	0.237000   
262.500000	0.221000   
263.000000	0.273000   
263.500000	0.239000   
264.000000	0.255000   
264.500000	0.271000   
265.000000	0.249000   
265.500000	0.228000   
266.000000	0.275000   
266.500000	0.208000   
267.000000	0.190000   
267.500000	0.181000   
268.000000	0.149000   
268.500000	0.170000   
269.000000	0.226000   
269.500000	0.146000   
270.000000	0.137000   
270.500000	0.189000   
271.000000	0.161000   
271.500000	0.155000   
272.000000	0.163000   
272.500000	0.094000   
273.000000	0.105000   
273.500000	0.098000   
274.000000	0.138000   
274.500000	0.138000   
275.000000	0.095000   
275.500000	0.100000   
276.000000	0.123000   
276.500000	0.120000   
277.000000	0.114000   
277.500000	0.116000   
278.000000	0.103000   
278.500000	0.095000   
279.000000	0.097000   
279.500000	0.117000   
280.000000	0.167000   
280.500000	0.111000   
281.000000	0.107000   
281.500000	0.174000   
282.000000	0.132000   
282.500000	0.100000   
283.000000	0.107000   
283.500000	0.094000   
284.000000	0.125000   
284.500000	0.127000   
285.000000	0.114000   
285.500000	0.169000   
286.000000	0.222000   
286.500000	0.109000   
287.000000	0.101000   
287.500000	0.107000   
288.000000	0.125000   
288.500000	0.118000   
289.000000	0.118000   
289.500000	0.102000   
290.000000	0.109000   
290.500000	0.189000   
291.000000	0.162000   
291.500000	0.194000   
292.000000	0.253000   
292.500000	0.171000   
293.000000	0.229000   
293.500000	0.171000   
294.000000	0.206000   
294.500000	0.216000   
295.000000	0.190000   
295.500000	0.111000   
296.000000	0.144000   
296.500000	0.223000   
297.000000	0.119000   
297.500000	0.155000   
298.000000	0.122000   
298.500000	0.161000   
299.000000	0.169000   
299.500000	0.146000   
300.000000	0.123000   
300.500000	0.186000   
301.000000	0.159000   
301.500000	0.195000   
302.000000	0.205000   
302.500000	0.172000   
303.000000	0.177000   
303.500000	0.143000   
304.000000	0.192000   
304.500000	0.224000   
305.000000	0.302000   
305.500000	0.226000   
306.000000	0.242000   
306.500000	0.347000   
307.000000	0.276000   
307.500000	0.273000   
308.000000	0.235000   
308.500000	0.215000   
309.000000	0.221000   
309.500000	0.213000   
310.000000	0.255000   
310.500000	0.273000   
311.000000	0.393000   
311.500000	0.338000   
312.000000	0.225000   
312.500000	0.197000   
313.000000	0.299000   
313.500000	0.222000   
314.000000	0.314000   
314.500000	0.318000   
315.000000	0.310000   
315.500000	0.349000   
316.000000	0.384000   
316.500000	0.294000   
317.000000	0.327000   
317.500000	0.348000   
318.000000	0.381000   
318.500000	0.319000   
319.000000	0.350000   
319.500000	0.413000   
320.000000	0.353000   
320.500000	0.309000   
321.000000	0.367000   
321.500000	0.364000   
322.000000	0.407000   
322.500000	0.431000   
323.000000	0.394000   
323.500000	0.363000   
324.000000	0.402000   
324.500000	0.420000   
325.000000	0.482000   
325.500000	0.428000   
326.000000	0.449000   
326.500000	0.450000   
327.000000	0.500000   
327.500000	0.560000   
328.000000	0.521000   
328.500000	0.518000   
329.000000	0.526000   
329.500000	0.620000   
330.000000	0.547000   
330.500000	0.600000   
331.000000	0.500000   
331.500000	0.679000   
332.000000	0.667000   
332.500000	0.554000   
333.000000	0.638000   
333.500000	0.649000   
334.000000	0.529000   
334.500000	0.716000   
335.000000	0.629000   
335.500000	0.714000   
336.000000	0.719000   
336.500000	0.688999   
337.000000	0.705000   
337.500000	0.675000   
338.000000	0.671000   
338.500000	0.662000   
339.000000	0.736000   
339.500000	0.704000   
340.000000	0.677000   
340.500000	0.712000   
341.000000	0.716000   
341.500000	0.709000   
342.000000	0.685000   
342.500000	0.770000   
343.000000	0.767000   
343.500000	0.723000   
344.000000	0.777000   
344.500000	0.848000   
345.000000	0.768000   
345.500000	0.729000   
346.000000	0.732000   
346.500000	0.719000   
347.000000	0.850000   
347.500000	0.819000   
348.000000	0.881000   
348.500000	0.773000   
349.000000	0.721000   
349.500000	0.858000   
350.000000	0.773000   
350.500000	0.989000   
351.000000	0.947000   
351.500000	0.738000   
352.000000	0.890000   
352.500000	0.988000   
353.000000	0.929000   
353.500000	0.902000   
354.000000	1.008000   
354.500000	0.900000   
355.000000	0.862000   
355.500000	0.807000   
356.000000	0.839000   
356.500000	0.923000   
357.000000	0.952000   
357.500000	0.970000   
358.000000	0.888000   
358.500000	0.906000   
359.000000	0.896000   
359.500000	0.912000   
360.000000	1.052000   
360.500000	1.107000   
361.000000	1.033000   
361.500000	1.110000   
362.000000	0.942999   
362.500000	0.947000   
363.000000	0.990000   
363.500000	0.867000   
364.000000	0.828000   
364.500000	0.841000   
365.000000	0.884000   
365.500000	0.926000   
366.000000	0.872000   
366.500000	0.990000   
367.000000	0.863000   
367.500000	0.890000   
368.000000	0.977000   
368.500000	0.939999   
369.000000	0.993000   
369.500000	0.940999   
370.000000	0.819000   
370.500000	0.901000   
371.000000	1.014000   
371.500000	1.095000   
372.000000	1.066000   
372.500000	1.036000   
373.000000	0.953000   
373.500000	0.926000   
374.000000	1.055000   
374.500000	0.922000   
375.000000	0.896000   
375.500000	0.994000   
376.000000	1.054000   
376.500000	0.914000   
377.000000	1.042000   
377.500000	1.030000   
378.000000	1.019000   
378.500000	0.906000   
379.000000	0.974000   
379.500000	0.961000   
380.000000	1.041000   
380.500000	1.075000   
381.000000	0.963000   
381.500000	0.954000   
382.000000	0.978000   
382.500000	0.988000   
383.000000	1.035000   
383.500000	1.078000   
384.000000	0.994000   
384.500000	1.151000   
385.000000	1.036000   
385.500000	0.951000   
386.000000	1.010000   
386.500000	0.941999   
387.000000	1.017000   
387.500000	1.133000   
388.000000	1.069000   
388.500000	1.116000   
389.000000	1.021000   
389.500000	0.989000   
390.000000	0.986000   
390.500000	0.995000   
391.000000	1.068000   
391.500000	0.901000   
392.000000	1.017000   
392.500000	1.028000   
393.000000	1.067000   
393.500000	0.920000   
394.000000	0.994000   
394.500000	1.071000   
395.000000	1.042000   
395.500000	1.055000   
396.000000	1.148000   
396.500000	1.077000   
397.000000	0.904000   
397.500000	1.164000   
398.000000	1.026000   
398.500000	1.030000   
399.000000	0.950000   
399.500000	0.970000   
400.000000	1.063000   
400.500000	1.124000   
401.000000	1.032000   
401.500000	1.184000   
402.000000	1.014000   
402.500000	1.123000   
403.000000	1.049000   
403.500000	0.986000   
404.000000	1.062000   
404.500000	1.188000   
405.000000	1.003000   
405.500000	1.048000   
406.000000	1.165000   
406.500000	0.948000   
407.000000	1.040000   
407.500000	1.016000   
408.000000	1.153000   
408.500000	1.241000   
409.000000	1.182000   
409.500000	1.245000   
410.000000	0.992000   
410.500000	1.225000   
411.000000	1.164000   
411.500000	1.125000   
412.000000	1.339000   
412.500000	1.303000   
413.000000	1.373000   
413.500000	1.309000   
414.000000	1.227000   
414.500000	1.339000   
415.000000	1.294000   
415.500000	1.308000   
416.000000	1.423000   
416.500000	1.333000   
417.000000	1.519000   
417.500000	1.524000   
418.000000	1.545000   
418.500000	1.434000   
419.000000	1.406000   
419.500000	1.404000   
420.000000	1.454000   
420.500000	1.385000   
421.000000	1.302000   
421.500000	1.550000   
422.000000	1.561000   
422.500000	1.511000   
423.000000	1.444000   
423.500000	1.476000   
424.000000	1.496000   
424.500000	1.655000   
425.000000	1.490000   
425.500000	1.549000   
426.000000	1.450000   
426.500000	1.464000   
427.000000	1.577000   
427.500000	1.830000   
428.000000	1.872000   
428.500000	1.751000   
429.000000	1.701000   
429.500000	1.579000   
430.000000	1.571000   
430.500000	1.565000   
431.000000	1.649000   
431.500000	1.479000   
432.000000	1.751000   
432.500000	1.767000   
433.000000	1.873000   
433.500000	1.732000   
434.000000	1.620000   
434.500000	1.553000   
435.000000	1.612000   
435.500000	1.719000   
436.000000	1.787000   
436.500000	1.843000   
437.000000	1.942000   
437.500000	1.949000   
438.000000	1.948000   
438.500000	2.008000   
439.000000	1.975000   
439.500000	1.924000   
440.000000	2.269000   
440.500000	2.098000   
441.000000	2.078000   
441.500000	2.242000   
442.000000	2.094000   
442.500000	2.272000   
443.000000	2.282000   
443.500000	2.301000   
444.000000	2.429000   
444.500000	2.322000   
445.000000	2.270000   
445.500000	2.436000   
446.000000	2.598000   
446.500000	2.691000   
447.000000	2.656000   
447.500000	2.676000   
448.000000	2.543000   
448.500000	2.463000   
449.000000	2.519000   
449.500000	2.514000   
450.000000	2.723000   
450.500000	2.662000   
451.000000	2.751000   
451.500000	2.937000   
452.000000	2.957000   
452.500000	2.695000   
453.000000	2.875000   
453.500000	2.757000   
454.000000	3.119000   
454.500000	3.083000   
455.000000	3.283000   
455.500000	3.624000   
456.000000	3.845000   
456.500000	4.499000   
457.000000	5.358000   
457.500000	6.530000   
458.000000	7.908000   
458.500000	9.497000   
459.000000	12.770000  
459.500000	16.215000  
460.000000	21.283000  
460.500000	25.111000  
461.000000	31.483000  
461.500000	38.388000  
462.000000	48.978000  
462.500000	60.973000  
463.000000	72.541000  
463.500000	85.208000  
464.000000	101.619000 
464.500000	120.444000 
465.000000	142.764000 
465.500000	161.917000 
466.000000	184.137000 
466.500000	205.587000 
467.000000	234.716000 
467.500000	257.960000 
468.000000	298.048000 
468.500000	323.330000 
469.000000	351.397000 
469.500000	377.723000 
470.000000	413.367000 
470.500000	441.672000 
471.000000	475.312000 
471.500000	498.292000 
472.000000	525.692000 
472.500000	544.819000 
473.000000	574.612000 
473.500000	591.095000 
474.000000	606.611000 
474.500000	619.913000 
475.000000	628.061000 
475.500000	638.881999 
476.000000	644.460000 
476.500000	647.691000 
477.000000	645.614000 
477.500000	643.913000 
478.000000	638.431000 
478.500000	624.934999 
479.000000	611.819000 
479.500000	600.381000 
480.000000	584.266000 
480.500000	563.357000 
481.000000	534.486000 
481.500000	514.219000 
482.000000	492.418000 
482.500000	466.589000 
483.000000	441.490000 
483.500000	406.638000 
484.000000	377.867000 
484.500000	344.926000 
485.000000	319.970000 
485.500000	285.434000 
486.000000	257.762000 
486.500000	223.338000 
487.000000	203.587000 
487.500000	178.409000 
488.000000	158.210000 
488.500000	133.119000 
489.000000	115.228000 
489.500000	97.084999  
490.000000	85.455000  
490.500000	68.822000  
491.000000	59.365000  
491.500000	45.352000  
492.000000	38.720000  
492.500000	28.805000  
493.000000	23.449000  
493.500000	16.185000  
494.000000	12.381000  
494.500000	9.327000   
495.000000	7.553000   
495.500000	6.515000   
496.000000	5.926000   
496.500000	5.217000   
497.000000	4.691000   
497.500000	4.492000   
498.000000	4.535000   
498.500000	4.277000   
499.000000	4.406000   
499.500000	4.409000   
500.000000	4.367000   
500.500000	4.238000   
501.000000	4.444000   
501.500000	4.161000   
502.000000	4.246000   
502.500000	4.431000   
503.000000	4.292000   
503.500000	3.866000   
504.000000	3.903000   
504.500000	3.983000   
505.000000	4.093000   
505.500000	4.122000   
506.000000	3.915000   
506.500000	4.032000   
507.000000	4.085000   
507.500000	4.037000   
508.000000	3.891000   
508.500000	4.076000   
509.000000	4.111000   
509.500000	4.052000   
510.000000	3.905000   
510.500000	3.972000   
511.000000	3.961000   
511.500000	4.033000   
512.000000	4.089000   
512.500000	3.978000   
513.000000	4.268000   
513.500000	4.420000   
514.000000	4.395000   
514.500000	4.255000   
515.000000	3.942000   
515.500000	3.937000   
516.000000	3.825000   
516.500000	4.129000   
517.000000	4.241000   
517.500000	4.032000   
518.000000	4.276000   
518.500000	4.047000   
519.000000	4.146000   
519.500000	4.219000   
520.000000	4.260000   
520.500000	4.015000   
521.000000	4.194000   
521.500000	4.222000   
522.000000	4.119000   
522.500000	4.174000   
523.000000	4.168000   
523.500000	3.955000   
524.000000	4.049000   
524.500000	3.968000   
525.000000	3.770000   
525.500000	3.870000   
526.000000	3.774000   
526.500000	3.559000   
527.000000	3.533000   
527.500000	3.395000   
528.000000	3.601000   
528.500000	3.774000   
529.000000	3.527000   
529.500000	3.537000   
530.000000	3.216000   
530.500000	3.317000   
531.000000	3.179000   
531.500000	3.231000   
532.000000	3.159000   
532.500000	3.060000   
533.000000	2.969000   
533.500000	2.994000   
534.000000	2.885000   
534.500000	2.855000   
535.000000	3.013000   
535.500000	2.773000   
536.000000	2.945000   
536.500000	2.772000   
537.000000	2.825000   
537.500000	2.767000   
538.000000	2.435000   
538.500000	2.381000   
539.000000	2.469000   
539.500000	2.533000   
540.000000	2.496000   
540.500000	2.364000   
541.000000	2.418000   
541.500000	2.436000   
542.000000	2.384000   
542.500000	2.296000   
543.000000	2.278000   
543.500000	2.210000   
544.000000	2.265000   
544.500000	2.308000   
545.000000	2.263000   
545.500000	2.295000   
546.000000	2.123000   
546.500000	2.126000   
547.000000	2.214000   
547.500000	2.099000   
548.000000	2.101000   
548.500000	2.156000   

