PE FL                   SPECTRUM    ASCII       PEDS        1.60        
  -1
0155F2~1.SP
19/01/24
13:02:36.00
19/01/24
13:02:36.00


548.500000
1









LS45
270.00
10.00
10.00
SCAN
1
16
100
100
0
600
0
1
0
1
7
ON
550 545 
0 0 0
#HDR
-1
-1
#GR
NM
INT 
0.00002384185791015625
0.0
230.000000
0.500000
638
8
999.999000
1.312000
#DATA
230.000000	1.449000   
230.500000	1.580000   
231.000000	1.312000   
231.500000	1.408000   
232.000000	1.803000   
232.500000	1.412000   
233.000000	1.698000   
233.500000	1.581000   
234.000000	1.525000   
234.500000	1.889000   
235.000000	1.757000   
235.500000	1.862000   
236.000000	1.730000   
236.500000	1.515000   
237.000000	1.582000   
237.500000	1.605000   
238.000000	1.884000   
238.500000	1.795000   
239.000000	1.669000   
239.500000	1.681000   
240.000000	1.896000   
240.500000	2.271000   
241.000000	2.090000   
241.500000	2.177000   
242.000000	2.080000   
242.500000	2.423000   
243.000000	2.308000   
243.500000	2.673000   
244.000000	2.574000   
244.500000	2.393000   
245.000000	2.454000   
245.500000	2.917000   
246.000000	2.731000   
246.500000	3.238000   
247.000000	3.380000   
247.500000	3.596000   
248.000000	4.373000   
248.500000	4.194000   
249.000000	5.236000   
249.500000	7.146000   
250.000000	8.192000   
250.500000	10.417000  
251.000000	12.619000  
251.500000	16.043000  
252.000000	19.469000  
252.500000	23.998000  
253.000000	28.975000  
253.500000	35.865000  
254.000000	44.294000  
254.500000	52.183000  
255.000000	66.312000  
255.500000	80.431000  
256.000000	97.849999  
256.500000	114.513000 
257.000000	133.657000 
257.500000	157.207000 
258.000000	183.344000 
258.500000	208.592000 
259.000000	234.554000 
259.500000	262.233000 
260.000000	297.106000 
260.500000	334.561000 
261.000000	365.084000 
261.500000	402.270000 
262.000000	431.700000 
262.500000	473.115000 
263.000000	501.385000 
263.500000	532.503000 
264.000000	566.630000 
264.500000	597.126000 
265.000000	623.829000 
265.500000	646.287000 
266.000000	671.985000 
266.500000	688.040000 
267.000000	706.546000 
267.500000	718.861000 
268.000000	727.991000 
268.500000	733.739000 
269.000000	734.702000 
269.500000	725.609000 
270.000000	719.515000 
270.500000	701.971000 
271.000000	694.799000 
271.500000	673.404000 
272.000000	652.825000 
272.500000	620.391000 
273.000000	593.290000 
273.500000	563.581000 
274.000000	535.019000 
274.500000	497.316000 
275.000000	467.193000 
275.500000	428.522000 
276.000000	393.650000 
276.500000	362.511000 
277.000000	323.610000 
277.500000	291.621000 
278.000000	257.620000 
278.500000	234.507000 
279.000000	207.717000 
279.500000	186.475000 
280.000000	162.954000 
280.500000	142.089000 
281.000000	122.734000 
281.500000	109.239000 
282.000000	94.903000  
282.500000	83.803000  
283.000000	75.739999  
283.500000	68.089000  
284.000000	63.747000  
284.500000	61.874000  
285.000000	60.776000  
285.500000	60.785000  
286.000000	60.567000  
286.500000	61.765000  
287.000000	65.358999  
287.500000	68.233999  
288.000000	71.517000  
288.500000	74.315000  
289.000000	79.113000  
289.500000	82.471000  
290.000000	85.766000  
290.500000	90.542000  
291.000000	95.824000  
291.500000	100.160000 
292.000000	103.099000 
292.500000	105.675000 
293.000000	108.914000 
293.500000	111.304000 
294.000000	112.612000 
294.500000	114.544000 
295.000000	117.691000 
295.500000	118.703000 
296.000000	120.746000 
296.500000	119.876000 
297.000000	120.721000 
297.500000	120.506000 
298.000000	122.349000 
298.500000	122.680000 
299.000000	120.045000 
299.500000	115.648000 
300.000000	115.481000 
300.500000	112.573000 
301.000000	109.578000 
301.500000	109.124000 
302.000000	107.952000 
302.500000	104.653000 
303.000000	101.197000 
303.500000	97.643000  
304.000000	96.271000  
304.500000	93.973000  
305.000000	89.693000  
305.500000	89.690000  
306.000000	86.116000  
306.500000	84.602000  
307.000000	81.150000  
307.500000	79.539000  
308.000000	75.727999  
308.500000	74.867999  
309.000000	75.447000  
309.500000	73.102999  
310.000000	71.486999  
310.500000	70.158000  
311.000000	70.465999  
311.500000	70.769000  
312.000000	69.056000  
312.500000	70.764000  
313.000000	72.447999  
313.500000	72.372000  
314.000000	72.246000  
314.500000	73.313999  
315.000000	75.038000  
315.500000	76.218000  
316.000000	77.465999  
316.500000	78.512000  
317.000000	79.382000  
317.500000	80.516000  
318.000000	82.918000  
318.500000	84.275000  
319.000000	85.005000  
319.500000	85.887000  
320.000000	88.471000  
320.500000	90.465000  
321.000000	92.249000  
321.500000	93.803000  
322.000000	94.274000  
322.500000	96.578999  
323.000000	97.421000  
323.500000	99.464000  
324.000000	102.938000 
324.500000	106.223000 
325.000000	109.869000 
325.500000	109.545000 
326.000000	112.229000 
326.500000	112.607000 
327.000000	117.015000 
327.500000	119.711000 
328.000000	119.669000 
328.500000	123.893000 
329.000000	124.572000 
329.500000	126.320000 
330.000000	128.422000 
330.500000	132.353000 
331.000000	134.143000 
331.500000	133.482000 
332.000000	137.927000 
332.500000	140.179000 
333.000000	141.461000 
333.500000	143.607000 
334.000000	144.225000 
334.500000	147.597000 
335.000000	146.975000 
335.500000	148.692000 
336.000000	150.442000 
336.500000	153.553000 
337.000000	151.425000 
337.500000	151.461000 
338.000000	155.996000 
338.500000	156.206000 
339.000000	159.903000 
339.500000	160.639000 
340.000000	160.803000 
340.500000	161.563000 
341.000000	160.376000 
341.500000	164.978000 
342.000000	163.132000 
342.500000	165.582000 
343.000000	169.109000 
343.500000	168.849000 
344.000000	168.096000 
344.500000	168.911000 
345.000000	171.005000 
345.500000	168.830000 
346.000000	173.541000 
346.500000	172.993000 
347.000000	174.900000 
347.500000	176.200000 
348.000000	175.406000 
348.500000	174.698000 
349.000000	179.080000 
349.500000	177.422000 
350.000000	180.610000 
350.500000	178.339000 
351.000000	180.125000 
351.500000	179.235000 
352.000000	180.198000 
352.500000	180.478000 
353.000000	183.728000 
353.500000	180.891000 
354.000000	181.096000 
354.500000	181.525000 
355.000000	180.305000 
355.500000	178.054000 
356.000000	176.213000 
356.500000	178.664000 
357.000000	178.592000 
357.500000	175.879000 
358.000000	174.462000 
358.500000	176.761000 
359.000000	177.254000 
359.500000	174.161000 
360.000000	173.493000 
360.500000	173.440000 
361.000000	172.615000 
361.500000	171.591000 
362.000000	170.876000 
362.500000	169.350000 
363.000000	167.425000 
363.500000	168.412000 
364.000000	166.572000 
364.500000	165.997000 
365.000000	165.758000 
365.500000	164.467000 
366.000000	165.186000 
366.500000	167.061000 
367.000000	166.242000 
367.500000	164.116000 
368.000000	162.122000 
368.500000	158.467000 
369.000000	160.877000 
369.500000	159.592000 
370.000000	157.341000 
370.500000	157.551000 
371.000000	156.526000 
371.500000	155.129000 
372.000000	153.395000 
372.500000	157.104000 
373.000000	157.340000 
373.500000	154.883000 
374.000000	154.648000 
374.500000	154.632000 
375.000000	150.452000 
375.500000	150.243000 
376.000000	148.747000 
376.500000	146.044000 
377.000000	147.928000 
377.500000	147.259000 
378.000000	143.199000 
378.500000	144.063000 
379.000000	145.234000 
379.500000	144.613000 
380.000000	143.537000 
380.500000	140.722000 
381.000000	139.240000 
381.500000	139.086000 
382.000000	138.302000 
382.500000	134.856000 
383.000000	135.216000 
383.500000	134.004000 
384.000000	133.214000 
384.500000	131.524000 
385.000000	129.060000 
385.500000	127.893000 
386.000000	129.527000 
386.500000	127.110000 
387.000000	127.215000 
387.500000	125.849000 
388.000000	126.437000 
388.500000	123.879000 
389.000000	123.643000 
389.500000	121.312000 
390.000000	121.240000 
390.500000	120.719000 
391.000000	117.275000 
391.500000	116.970000 
392.000000	115.703000 
392.500000	113.715000 
393.000000	114.197000 
393.500000	111.360000 
394.000000	111.799000 
394.500000	112.070000 
395.000000	113.060000 
395.500000	111.071000 
396.000000	110.744000 
396.500000	108.780000 
397.000000	107.285000 
397.500000	105.765000 
398.000000	105.422000 
398.500000	104.510000 
399.000000	104.696000 
399.500000	103.918000 
400.000000	103.755000 
400.500000	103.009000 
401.000000	104.523000 
401.500000	102.804000 
402.000000	101.977000 
402.500000	103.668000 
403.000000	100.903000 
403.500000	100.421000 
404.000000	100.378000 
404.500000	100.633000 
405.000000	100.494000 
405.500000	99.093999  
406.000000	98.352999  
406.500000	99.200000  
407.000000	98.840999  
407.500000	99.614000  
408.000000	97.605999  
408.500000	94.080000  
409.000000	96.936000  
409.500000	94.714000  
410.000000	94.812000  
410.500000	95.506000  
411.000000	93.285000  
411.500000	94.065000  
412.000000	95.580000  
412.500000	96.423000  
413.000000	94.432000  
413.500000	92.555000  
414.000000	90.530000  
414.500000	90.747000  
415.000000	91.773000  
415.500000	92.499000  
416.000000	91.209000  
416.500000	91.297000  
417.000000	90.444000  
417.500000	92.718999  
418.000000	88.983000  
418.500000	88.410000  
419.000000	91.006000  
419.500000	89.996000  
420.000000	88.870000  
420.500000	90.250000  
421.000000	88.188000  
421.500000	88.730999  
422.000000	88.898000  
422.500000	88.382000  
423.000000	84.901000  
423.500000	86.456000  
424.000000	85.629000  
424.500000	85.783000  
425.000000	87.980000  
425.500000	86.420000  
426.000000	85.705000  
426.500000	86.681000  
427.000000	87.385000  
427.500000	88.769000  
428.000000	88.592000  
428.500000	90.218999  
429.000000	89.473000  
429.500000	88.157000  
430.000000	87.956999  
430.500000	89.172000  
431.000000	88.809000  
431.500000	89.190000  
432.000000	88.008000  
432.500000	90.396000  
433.000000	90.379000  
433.500000	89.877000  
434.000000	91.555000  
434.500000	89.705000  
435.000000	91.679000  
435.500000	92.699000  
436.000000	90.705000  
436.500000	89.998000  
437.000000	93.392000  
437.500000	91.555000  
438.000000	92.078999  
438.500000	92.158000  
439.000000	90.101000  
439.500000	91.684000  
440.000000	93.215999  
440.500000	90.541000  
441.000000	93.147000  
441.500000	90.518000  
442.000000	91.764000  
442.500000	91.433000  
443.000000	91.348000  
443.500000	93.602999  
444.000000	92.411000  
444.500000	92.693000  
445.000000	92.537000  
445.500000	91.346000  
446.000000	92.187000  
446.500000	91.291000  
447.000000	91.503000  
447.500000	91.873000  
448.000000	90.611999  
448.500000	88.965999  
449.000000	91.767000  
449.500000	93.352000  
450.000000	93.793000  
450.500000	93.154000  
451.000000	90.336000  
451.500000	90.902000  
452.000000	91.127000  
452.500000	89.186000  
453.000000	90.827000  
453.500000	90.441999  
454.000000	90.108000  
454.500000	88.593999  
455.000000	89.793000  
455.500000	89.549000  
456.000000	89.538000  
456.500000	90.468999  
457.000000	88.102000  
457.500000	87.193000  
458.000000	87.837000  
458.500000	87.677000  
459.000000	87.324000  
459.500000	87.712999  
460.000000	86.989999  
460.500000	85.791000  
461.000000	86.744000  
461.500000	86.813000  
462.000000	84.283000  
462.500000	83.944000  
463.000000	84.683000  
463.500000	86.327000  
464.000000	85.679000  
464.500000	84.283000  
465.000000	83.092000  
465.500000	83.834999  
466.000000	84.296000  
466.500000	83.436000  
467.000000	84.273000  
467.500000	84.142000  
468.000000	82.617999  
468.500000	85.602000  
469.000000	83.364999  
469.500000	83.799000  
470.000000	83.559000  
470.500000	81.568000  
471.000000	82.907000  
471.500000	79.714000  
472.000000	83.170000  
472.500000	84.181000  
473.000000	83.753000  
473.500000	83.334000  
474.000000	82.499000  
474.500000	82.711000  
475.000000	83.369000  
475.500000	83.678000  
476.000000	84.923000  
476.500000	83.471000  
477.000000	81.900000  
477.500000	81.857000  
478.000000	81.509000  
478.500000	83.541000  
479.000000	84.819999  
479.500000	83.941999  
480.000000	83.834999  
480.500000	84.340000  
481.000000	83.153000  
481.500000	84.264000  
482.000000	85.462000  
482.500000	85.882000  
483.000000	84.212000  
483.500000	84.174000  
484.000000	81.825000  
484.500000	85.150000  
485.000000	85.503000  
485.500000	83.532000  
486.000000	86.279000  
486.500000	86.650000  
487.000000	85.875000  
487.500000	86.084000  
488.000000	87.122000  
488.500000	85.513000  
489.000000	87.267000  
489.500000	87.453000  
490.000000	86.645000  
490.500000	87.080000  
491.000000	87.342000  
491.500000	86.134000  
492.000000	86.813999  
492.500000	86.764000  
493.000000	90.029000  
493.500000	88.877000  
494.000000	89.267000  
494.500000	87.852000  
495.000000	86.995000  
495.500000	88.263000  
496.000000	88.593000  
496.500000	88.158000  
497.000000	87.285000  
497.500000	86.680000  
498.000000	87.138000  
498.500000	86.551000  
499.000000	87.759000  
499.500000	86.263000  
500.000000	87.390000  
500.500000	86.305000  
501.000000	86.307000  
501.500000	85.360000  
502.000000	88.767000  
502.500000	87.636000  
503.000000	85.471000  
503.500000	84.760000  
504.000000	85.284000  
504.500000	84.486000  
505.000000	85.569999  
505.500000	83.739999  
506.000000	84.790000  
506.500000	84.660000  
507.000000	84.236999  
507.500000	84.680000  
508.000000	85.983000  
508.500000	85.828999  
509.000000	86.488000  
509.500000	86.634000  
510.000000	88.459000  
510.500000	91.986999  
511.000000	94.700999  
511.500000	96.090000  
512.000000	101.184000 
512.500000	105.224000 
513.000000	110.527000 
513.500000	117.173000 
514.000000	126.091000 
514.500000	130.665000 
515.000000	141.814000 
515.500000	148.225000 
516.000000	164.236000 
516.500000	176.296000 
517.000000	195.763000 
517.500000	213.110000 
518.000000	228.623000 
518.500000	241.116000 
519.000000	266.410000 
519.500000	290.541000 
520.000000	313.679000 
520.500000	340.581000 
521.000000	371.963000 
521.500000	400.369000 
522.000000	447.132000 
522.500000	478.767000 
523.000000	521.331000 
523.500000	553.543000 
524.000000	613.330000 
524.500000	657.069000 
525.000000	704.274000 
525.500000	754.997000 
526.000000	806.818000 
526.500000	868.228000 
527.000000	923.208999 
527.500000	975.396000 
528.000000	999.999000 
528.500000	999.999000 
529.000000	999.999000 
529.500000	999.999000 
530.000000	999.999000 
530.500000	999.999000 
531.000000	999.999000 
531.500000	999.999000 
532.000000	999.999000 
532.500000	999.999000 
533.000000	999.999000 
533.500000	999.999000 
534.000000	999.999000 
534.500000	999.999000 
535.000000	999.999000 
535.500000	999.999000 
536.000000	999.999000 
536.500000	999.999000 
537.000000	999.999000 
537.500000	999.999000 
538.000000	999.999000 
538.500000	999.999000 
539.000000	999.999000 
539.500000	999.999000 
540.000000	999.999000 
540.500000	999.999000 
541.000000	999.999000 
541.500000	999.999000 
542.000000	999.999000 
542.500000	999.999000 
543.000000	999.999000 
543.500000	999.999000 
544.000000	999.999000 
544.500000	999.999000 
545.000000	999.999000 
545.500000	999.999000 
546.000000	999.999000 
546.500000	999.999000 
547.000000	999.999000 
547.500000	999.999000 
548.000000	999.999000 
548.500000	999.999000 

