PE FL                   SPECTRUM    ASCII       PEDS        1.60        
  -1
0124SC~2.SP
19/01/24
13:35:01.00
19/01/24
13:35:01.00


548.500000
1









LS45
485.00
10.00
10.00
SCAN
1
16
100
100
0
600
0
1
0
1
7
ON
550 545 
0 0 0
#HDR
-1
-1
#GR
NM
INT 
0.00002384185791015625
0.0
230.000000
0.500000
638
8
601.255000
0.075000
#DATA
230.000000	0.118000   
230.500000	0.111000   
231.000000	0.143000   
231.500000	0.152000   
232.000000	0.124000   
232.500000	0.208000   
233.000000	0.215000   
233.500000	0.238000   
234.000000	0.297000   
234.500000	0.320000   
235.000000	0.344000   
235.500000	0.311000   
236.000000	0.298000   
236.500000	0.352000   
237.000000	0.350000   
237.500000	0.373000   
238.000000	0.450000   
238.500000	0.505000   
239.000000	0.464000   
239.500000	0.637000   
240.000000	0.530000   
240.500000	0.530000   
241.000000	0.486000   
241.500000	0.490000   
242.000000	0.523000   
242.500000	0.534000   
243.000000	0.574000   
243.500000	0.502000   
244.000000	0.456000   
244.500000	0.424000   
245.000000	0.450000   
245.500000	0.369000   
246.000000	0.337000   
246.500000	0.387000   
247.000000	0.401000   
247.500000	0.342000   
248.000000	0.250000   
248.500000	0.322000   
249.000000	0.261000   
249.500000	0.281000   
250.000000	0.166000   
250.500000	0.168000   
251.000000	0.201000   
251.500000	0.242000   
252.000000	0.198000   
252.500000	0.165000   
253.000000	0.196000   
253.500000	0.198000   
254.000000	0.185000   
254.500000	0.209000   
255.000000	0.222000   
255.500000	0.253000   
256.000000	0.235000   
256.500000	0.218000   
257.000000	0.241000   
257.500000	0.206000   
258.000000	0.343000   
258.500000	0.391000   
259.000000	0.316000   
259.500000	0.424000   
260.000000	0.392000   
260.500000	0.444000   
261.000000	0.470000   
261.500000	0.343000   
262.000000	0.403000   
262.500000	0.446000   
263.000000	0.343000   
263.500000	0.360000   
264.000000	0.439000   
264.500000	0.368000   
265.000000	0.417000   
265.500000	0.415000   
266.000000	0.426000   
266.500000	0.379000   
267.000000	0.327000   
267.500000	0.319000   
268.000000	0.353000   
268.500000	0.301000   
269.000000	0.281000   
269.500000	0.264000   
270.000000	0.229000   
270.500000	0.156000   
271.000000	0.179000   
271.500000	0.226000   
272.000000	0.185000   
272.500000	0.178000   
273.000000	0.114000   
273.500000	0.114000   
274.000000	0.129000   
274.500000	0.129000   
275.000000	0.140000   
275.500000	0.098000   
276.000000	0.119000   
276.500000	0.110000   
277.000000	0.090000   
277.500000	0.081000   
278.000000	0.075000   
278.500000	0.099000   
279.000000	0.091000   
279.500000	0.111000   
280.000000	0.134000   
280.500000	0.124000   
281.000000	0.149000   
281.500000	0.098000   
282.000000	0.118000   
282.500000	0.123000   
283.000000	0.104000   
283.500000	0.128000   
284.000000	0.126000   
284.500000	0.126000   
285.000000	0.167000   
285.500000	0.133000   
286.000000	0.112000   
286.500000	0.122000   
287.000000	0.161000   
287.500000	0.149000   
288.000000	0.116000   
288.500000	0.163000   
289.000000	0.143000   
289.500000	0.154000   
290.000000	0.149000   
290.500000	0.160000   
291.000000	0.141000   
291.500000	0.188000   
292.000000	0.132000   
292.500000	0.110000   
293.000000	0.149000   
293.500000	0.192000   
294.000000	0.143000   
294.500000	0.196000   
295.000000	0.146000   
295.500000	0.129000   
296.000000	0.171000   
296.500000	0.126000   
297.000000	0.193000   
297.500000	0.150000   
298.000000	0.178000   
298.500000	0.191000   
299.000000	0.193000   
299.500000	0.161000   
300.000000	0.183000   
300.500000	0.156000   
301.000000	0.190000   
301.500000	0.241000   
302.000000	0.202000   
302.500000	0.185000   
303.000000	0.190000   
303.500000	0.209000   
304.000000	0.211000   
304.500000	0.195000   
305.000000	0.176000   
305.500000	0.215000   
306.000000	0.249000   
306.500000	0.226000   
307.000000	0.254000   
307.500000	0.266000   
308.000000	0.267000   
308.500000	0.252000   
309.000000	0.241000   
309.500000	0.258000   
310.000000	0.268000   
310.500000	0.290000   
311.000000	0.290000   
311.500000	0.272000   
312.000000	0.265000   
312.500000	0.287000   
313.000000	0.321000   
313.500000	0.332000   
314.000000	0.330000   
314.500000	0.328000   
315.000000	0.333000   
315.500000	0.292000   
316.000000	0.358000   
316.500000	0.358000   
317.000000	0.344000   
317.500000	0.346000   
318.000000	0.402000   
318.500000	0.294000   
319.000000	0.377000   
319.500000	0.413000   
320.000000	0.368000   
320.500000	0.347000   
321.000000	0.471000   
321.500000	0.387000   
322.000000	0.414000   
322.500000	0.426000   
323.000000	0.464000   
323.500000	0.422000   
324.000000	0.396000   
324.500000	0.436000   
325.000000	0.451000   
325.500000	0.455000   
326.000000	0.478000   
326.500000	0.519000   
327.000000	0.550000   
327.500000	0.537000   
328.000000	0.511000   
328.500000	0.553000   
329.000000	0.520000   
329.500000	0.585000   
330.000000	0.564999   
330.500000	0.694000   
331.000000	0.601000   
331.500000	0.686000   
332.000000	0.702000   
332.500000	0.642000   
333.000000	0.687999   
333.500000	0.765000   
334.000000	0.740000   
334.500000	0.763000   
335.000000	0.607000   
335.500000	0.803000   
336.000000	0.880000   
336.500000	0.820000   
337.000000	0.711000   
337.500000	0.794000   
338.000000	0.728000   
338.500000	0.723000   
339.000000	0.747000   
339.500000	0.852000   
340.000000	0.800000   
340.500000	0.820000   
341.000000	0.838000   
341.500000	0.937999   
342.000000	0.896000   
342.500000	0.949000   
343.000000	0.839000   
343.500000	0.911000   
344.000000	0.919000   
344.500000	0.938999   
345.000000	0.860000   
345.500000	0.944000   
346.000000	0.961000   
346.500000	0.955000   
347.000000	1.044000   
347.500000	1.058000   
348.000000	1.049000   
348.500000	0.862000   
349.000000	1.072000   
349.500000	1.039000   
350.000000	0.944000   
350.500000	1.060000   
351.000000	1.000000   
351.500000	1.083000   
352.000000	1.067000   
352.500000	1.016000   
353.000000	1.172000   
353.500000	1.083000   
354.000000	1.107000   
354.500000	1.120000   
355.000000	0.991000   
355.500000	1.051000   
356.000000	1.185000   
356.500000	1.267000   
357.000000	1.152000   
357.500000	1.067000   
358.000000	1.158000   
358.500000	1.108000   
359.000000	1.065000   
359.500000	1.092000   
360.000000	1.062000   
360.500000	1.144000   
361.000000	1.196000   
361.500000	1.165000   
362.000000	1.049000   
362.500000	1.109000   
363.000000	1.128000   
363.500000	1.027000   
364.000000	1.104000   
364.500000	1.299000   
365.000000	1.173000   
365.500000	1.303000   
366.000000	1.063000   
366.500000	1.239000   
367.000000	1.109000   
367.500000	1.084000   
368.000000	1.167000   
368.500000	1.274000   
369.000000	1.080000   
369.500000	1.060000   
370.000000	1.088000   
370.500000	1.166000   
371.000000	1.119000   
371.500000	1.060000   
372.000000	1.067000   
372.500000	1.082000   
373.000000	1.153000   
373.500000	1.166000   
374.000000	1.175000   
374.500000	1.150000   
375.000000	1.244000   
375.500000	1.099000   
376.000000	1.276000   
376.500000	1.164000   
377.000000	1.193000   
377.500000	1.207000   
378.000000	1.273000   
378.500000	1.172000   
379.000000	1.199000   
379.500000	1.162000   
380.000000	1.256000   
380.500000	1.236000   
381.000000	1.147000   
381.500000	1.266000   
382.000000	1.149000   
382.500000	1.131000   
383.000000	1.131000   
383.500000	1.201000   
384.000000	1.190000   
384.500000	1.130000   
385.000000	1.140000   
385.500000	1.167000   
386.000000	1.116000   
386.500000	1.115000   
387.000000	1.027000   
387.500000	0.985000   
388.000000	1.073000   
388.500000	1.094000   
389.000000	1.061000   
389.500000	1.165000   
390.000000	1.134000   
390.500000	1.267000   
391.000000	1.311000   
391.500000	1.226000   
392.000000	1.266000   
392.500000	1.119000   
393.000000	1.098000   
393.500000	1.133000   
394.000000	1.119000   
394.500000	1.168000   
395.000000	1.184000   
395.500000	1.120000   
396.000000	1.099000   
396.500000	1.063000   
397.000000	1.088000   
397.500000	1.220000   
398.000000	1.217000   
398.500000	1.307000   
399.000000	1.151000   
399.500000	1.122000   
400.000000	1.124000   
400.500000	1.075000   
401.000000	1.231000   
401.500000	1.123000   
402.000000	1.169000   
402.500000	1.176000   
403.000000	1.173000   
403.500000	1.043000   
404.000000	1.071000   
404.500000	1.100000   
405.000000	1.154000   
405.500000	1.104000   
406.000000	1.192000   
406.500000	1.157000   
407.000000	1.157000   
407.500000	1.183000   
408.000000	1.275000   
408.500000	1.190000   
409.000000	1.277000   
409.500000	1.357000   
410.000000	1.195000   
410.500000	1.196000   
411.000000	1.093000   
411.500000	1.270000   
412.000000	1.264000   
412.500000	1.391000   
413.000000	1.373000   
413.500000	1.377000   
414.000000	1.222000   
414.500000	1.260000   
415.000000	1.379000   
415.500000	1.296000   
416.000000	1.299000   
416.500000	1.256000   
417.000000	1.397000   
417.500000	1.345000   
418.000000	1.350000   
418.500000	1.315000   
419.000000	1.375000   
419.500000	1.375000   
420.000000	1.396000   
420.500000	1.475000   
421.000000	1.275000   
421.500000	1.304000   
422.000000	1.335000   
422.500000	1.372000   
423.000000	1.466000   
423.500000	1.507000   
424.000000	1.415000   
424.500000	1.532000   
425.000000	1.516000   
425.500000	1.548000   
426.000000	1.394000   
426.500000	1.468000   
427.000000	1.497000   
427.500000	1.554000   
428.000000	1.495000   
428.500000	1.612000   
429.000000	1.457000   
429.500000	1.421000   
430.000000	1.326000   
430.500000	1.393000   
431.000000	1.552000   
431.500000	1.573000   
432.000000	1.504000   
432.500000	1.654000   
433.000000	1.629000   
433.500000	1.566000   
434.000000	1.476000   
434.500000	1.523000   
435.000000	1.578000   
435.500000	1.745000   
436.000000	1.679000   
436.500000	1.643000   
437.000000	1.773000   
437.500000	1.715000   
438.000000	1.813000   
438.500000	1.813000   
439.000000	1.823000   
439.500000	1.903000   
440.000000	1.905000   
440.500000	1.638000   
441.000000	1.848000   
441.500000	1.693000   
442.000000	1.825000   
442.500000	1.903000   
443.000000	1.825000   
443.500000	1.742000   
444.000000	2.029000   
444.500000	2.015000   
445.000000	1.954000   
445.500000	2.073000   
446.000000	2.019000   
446.500000	1.855000   
447.000000	2.044000   
447.500000	2.201000   
448.000000	2.064000   
448.500000	1.923000   
449.000000	2.048000   
449.500000	2.291000   
450.000000	2.195000   
450.500000	2.251000   
451.000000	2.162000   
451.500000	2.170000   
452.000000	2.311000   
452.500000	2.269000   
453.000000	2.337000   
453.500000	2.267000   
454.000000	2.330000   
454.500000	2.471000   
455.000000	2.523000   
455.500000	2.594000   
456.000000	2.335000   
456.500000	2.526000   
457.000000	2.492000   
457.500000	2.533000   
458.000000	2.552000   
458.500000	2.500000   
459.000000	2.679000   
459.500000	2.713000   
460.000000	2.858000   
460.500000	2.962000   
461.000000	3.326000   
461.500000	3.617000   
462.000000	4.258000   
462.500000	5.190000   
463.000000	6.111000   
463.500000	7.831000   
464.000000	10.149000  
464.500000	12.846000  
465.000000	16.159000  
465.500000	20.112000  
466.000000	25.357000  
466.500000	30.750000  
467.000000	38.480000  
467.500000	47.156000  
468.000000	59.691000  
468.500000	67.962000  
469.000000	81.995000  
469.500000	93.098000  
470.000000	111.808000 
470.500000	131.715000 
471.000000	157.644000 
471.500000	178.319000 
472.000000	203.836000 
472.500000	228.951000 
473.000000	261.052000 
473.500000	285.379000 
474.000000	313.511000 
474.500000	341.256000 
475.000000	372.470000 
475.500000	396.380000 
476.000000	430.110000 
476.500000	453.336000 
477.000000	474.592000 
477.500000	498.593000 
478.000000	517.155000 
478.500000	538.761999 
479.000000	558.213000 
479.500000	565.754000 
480.000000	580.472000 
480.500000	591.076000 
481.000000	599.794000 
481.500000	601.255000 
482.000000	599.583999 
482.500000	600.905000 
483.000000	595.294000 
483.500000	588.256000 
484.000000	579.924000 
484.500000	561.730000 
485.000000	544.366000 
485.500000	523.208999 
486.000000	503.143000 
486.500000	476.053000 
487.000000	451.644000 
487.500000	426.087000 
488.000000	403.864000 
488.500000	373.049000 
489.000000	343.153000 
489.500000	312.191000 
490.000000	288.077000 
490.500000	253.419000 
491.000000	227.547000 
491.500000	193.370000 
492.000000	170.754000 
492.500000	142.498000 
493.000000	124.051000 
493.500000	96.083000  
494.000000	79.236000  
494.500000	63.618000  
495.000000	52.682000  
495.500000	40.452000  
496.000000	33.072000  
496.500000	25.885000  
497.000000	19.872000  
497.500000	16.141000  
498.000000	12.647000  
498.500000	9.337000   
499.000000	7.810000   
499.500000	6.548000   
500.000000	5.719000   
500.500000	5.025000   
501.000000	4.568000   
501.500000	4.156000   
502.000000	3.850000   
502.500000	3.655000   
503.000000	3.819000   
503.500000	3.604000   
504.000000	3.642000   
504.500000	3.607000   
505.000000	3.475000   
505.500000	3.367000   
506.000000	3.183000   
506.500000	3.494000   
507.000000	3.371000   
507.500000	3.564000   
508.000000	3.186000   
508.500000	3.195000   
509.000000	3.202000   
509.500000	3.244000   
510.000000	3.352000   
510.500000	3.473000   
511.000000	3.249000   
511.500000	3.176000   
512.000000	3.265000   
512.500000	3.303000   
513.000000	3.269000   
513.500000	3.024000   
514.000000	3.105000   
514.500000	3.248000   
515.000000	3.111000   
515.500000	3.133000   
516.000000	3.160000   
516.500000	3.430000   
517.000000	3.353000   
517.500000	3.324000   
518.000000	3.190000   
518.500000	3.465000   
519.000000	3.556000   
519.500000	3.664000   
520.000000	3.728000   
520.500000	3.993000   
521.000000	3.632000   
521.500000	3.697000   
522.000000	3.708000   
522.500000	3.660000   
523.000000	3.700000   
523.500000	3.943000   
524.000000	4.017000   
524.500000	4.112000   
525.000000	3.727000   
525.500000	3.886000   
526.000000	3.931000   
526.500000	3.619000   
527.000000	4.098000   
527.500000	3.999000   
528.000000	3.891000   
528.500000	3.925000   
529.000000	3.655000   
529.500000	3.745000   
530.000000	3.518000   
530.500000	3.554000   
531.000000	3.558000   
531.500000	3.381000   
532.000000	3.324000   
532.500000	3.038000   
533.000000	2.940000   
533.500000	3.033000   
534.000000	3.032000   
534.500000	2.775000   
535.000000	2.684000   
535.500000	2.756000   
536.000000	2.602000   
536.500000	2.470000   
537.000000	2.457000   
537.500000	2.343000   
538.000000	2.356000   
538.500000	2.353000   
539.000000	2.235000   
539.500000	2.207000   
540.000000	2.067000   
540.500000	2.072000   
541.000000	1.893000   
541.500000	1.957000   
542.000000	1.873000   
542.500000	1.676000   
543.000000	1.733000   
543.500000	1.687000   
544.000000	1.815000   
544.500000	1.944000   
545.000000	1.803000   
545.500000	1.695000   
546.000000	1.625000   
546.500000	1.608000   
547.000000	1.465000   
547.500000	1.505000   
548.000000	1.573000   
548.500000	1.583000   

