PE FL                   SPECTRUM    ASCII       PEDS        1.60        
  -1
0149F2~1.SP
19/01/24
13:07:07.00
19/01/24
13:07:07.00


548.500000
1









LS45
300.00
10.00
10.00
SCAN
1
16
100
100
0
600
0
1
0
1
7
ON
550 545 
0 0 0
#HDR
-1
-1
#GR
NM
INT 
0.00002384185791015625
0.0
230.000000
0.500000
638
8
999.999000
0.686000
#DATA
230.000000	0.890000   
230.500000	1.054000   
231.000000	1.072000   
231.500000	0.992000   
232.000000	0.984000   
232.500000	1.015000   
233.000000	0.859000   
233.500000	0.686000   
234.000000	0.935000   
234.500000	0.927000   
235.000000	0.929000   
235.500000	0.904000   
236.000000	0.893000   
236.500000	0.804000   
237.000000	0.809000   
237.500000	0.884000   
238.000000	1.042000   
238.500000	1.023000   
239.000000	1.014000   
239.500000	1.127000   
240.000000	1.100000   
240.500000	0.922000   
241.000000	0.939999   
241.500000	1.052000   
242.000000	1.128000   
242.500000	0.896000   
243.000000	1.111000   
243.500000	1.154000   
244.000000	1.146000   
244.500000	1.123000   
245.000000	1.034000   
245.500000	0.931000   
246.000000	0.993000   
246.500000	1.090000   
247.000000	1.187000   
247.500000	1.184000   
248.000000	1.278000   
248.500000	1.127000   
249.000000	1.268000   
249.500000	1.113000   
250.000000	1.226000   
250.500000	0.968000   
251.000000	1.202000   
251.500000	1.330000   
252.000000	1.468000   
252.500000	1.357000   
253.000000	1.279000   
253.500000	1.320000   
254.000000	1.292000   
254.500000	1.513000   
255.000000	1.332000   
255.500000	1.317000   
256.000000	1.448000   
256.500000	1.556000   
257.000000	1.505000   
257.500000	1.802000   
258.000000	1.711000   
258.500000	1.943000   
259.000000	1.666000   
259.500000	1.910000   
260.000000	1.839000   
260.500000	2.144000   
261.000000	2.208000   
261.500000	2.156000   
262.000000	2.212000   
262.500000	2.036000   
263.000000	2.084000   
263.500000	2.083000   
264.000000	2.264000   
264.500000	2.270000   
265.000000	2.183000   
265.500000	2.217000   
266.000000	2.400000   
266.500000	2.585000   
267.000000	2.548000   
267.500000	2.425000   
268.000000	2.603000   
268.500000	2.704000   
269.000000	2.670000   
269.500000	2.720000   
270.000000	3.064000   
270.500000	3.101000   
271.000000	3.251000   
271.500000	3.347000   
272.000000	3.617000   
272.500000	3.717000   
273.000000	3.463000   
273.500000	3.139000   
274.000000	3.746000   
274.500000	3.878000   
275.000000	4.158000   
275.500000	4.462000   
276.000000	4.903000   
276.500000	5.469000   
277.000000	6.619000   
277.500000	7.114000   
278.000000	8.587999   
278.500000	10.570000  
279.000000	12.820000  
279.500000	15.383000  
280.000000	19.682000  
280.500000	24.464000  
281.000000	32.416000  
281.500000	41.395000  
282.000000	51.061000  
282.500000	63.697000  
283.000000	78.637000  
283.500000	95.444999  
284.000000	115.332000 
284.500000	138.226000 
285.000000	161.102000 
285.500000	192.457000 
286.000000	218.266000 
286.500000	252.313000 
287.000000	288.953000 
287.500000	331.393000 
288.000000	369.719000 
288.500000	413.954000 
289.000000	462.632000 
289.500000	504.125000 
290.000000	555.623000 
290.500000	598.640000 
291.000000	653.974000 
291.500000	699.299000 
292.000000	751.476000 
292.500000	792.391000 
293.000000	842.189000 
293.500000	877.219000 
294.000000	917.684000 
294.500000	945.029000 
295.000000	977.255000 
295.500000	999.999000 
296.000000	999.999000 
296.500000	999.999000 
297.000000	999.999000 
297.500000	999.999000 
298.000000	999.999000 
298.500000	999.999000 
299.000000	999.999000 
299.500000	999.999000 
300.000000	999.999000 
300.500000	986.564000 
301.000000	965.297000 
301.500000	934.391000 
302.000000	903.314000 
302.500000	869.880000 
303.000000	812.206000 
303.500000	777.240000 
304.000000	718.275000 
304.500000	675.039000 
305.000000	622.410999 
305.500000	581.059000 
306.000000	519.081000 
306.500000	470.653000 
307.000000	423.694000 
307.500000	373.845000 
308.000000	330.780000 
308.500000	286.861000 
309.000000	254.231000 
309.500000	214.268000 
310.000000	188.889000 
310.500000	156.065000 
311.000000	135.622000 
311.500000	113.008000 
312.000000	102.796000 
312.500000	86.412000  
313.000000	76.896000  
313.500000	66.540000  
314.000000	58.468000  
314.500000	51.285000  
315.000000	47.278000  
315.500000	44.035000  
316.000000	42.223000  
316.500000	43.611000  
317.000000	44.640000  
317.500000	46.419000  
318.000000	48.890000  
318.500000	51.399000  
319.000000	54.431000  
319.500000	57.683000  
320.000000	62.049000  
320.500000	66.286000  
321.000000	72.081000  
321.500000	76.376000  
322.000000	79.691999  
322.500000	84.383000  
323.000000	91.236000  
323.500000	98.089000  
324.000000	104.189000 
324.500000	109.712000 
325.000000	114.925000 
325.500000	117.886000 
326.000000	123.303000 
326.500000	126.777000 
327.000000	130.579000 
327.500000	135.118000 
328.000000	138.459000 
328.500000	142.693000 
329.000000	146.225000 
329.500000	148.247000 
330.000000	149.725000 
330.500000	151.894000 
331.000000	155.465000 
331.500000	153.583000 
332.000000	155.084000 
332.500000	155.586000 
333.000000	154.848000 
333.500000	154.796000 
334.000000	151.291000 
334.500000	150.446000 
335.000000	146.137000 
335.500000	144.517000 
336.000000	143.542000 
336.500000	137.292000 
337.000000	136.381000 
337.500000	131.040000 
338.000000	127.547000 
338.500000	125.695000 
339.000000	124.147000 
339.500000	122.222000 
340.000000	119.988000 
340.500000	114.493000 
341.000000	112.512000 
341.500000	111.176000 
342.000000	109.267000 
342.500000	107.008000 
343.000000	105.925000 
343.500000	103.310000 
344.000000	102.432000 
344.500000	102.123000 
345.000000	101.194000 
345.500000	97.486000  
346.000000	98.166000  
346.500000	100.546000 
347.000000	99.489000  
347.500000	99.977999  
348.000000	99.214000  
348.500000	98.549000  
349.000000	99.249000  
349.500000	99.657000  
350.000000	101.856000 
350.500000	102.759000 
351.000000	102.364000 
351.500000	101.827000 
352.000000	102.239000 
352.500000	103.505000 
353.000000	102.431000 
353.500000	102.886000 
354.000000	103.862000 
354.500000	105.299000 
355.000000	106.955000 
355.500000	107.806000 
356.000000	105.319000 
356.500000	105.557000 
357.000000	106.577000 
357.500000	106.517000 
358.000000	108.438000 
358.500000	105.363000 
359.000000	109.327000 
359.500000	108.092000 
360.000000	106.527000 
360.500000	106.629000 
361.000000	107.113000 
361.500000	107.870000 
362.000000	107.498000 
362.500000	108.052000 
363.000000	108.200000 
363.500000	108.421000 
364.000000	108.595000 
364.500000	109.063000 
365.000000	107.004000 
365.500000	109.624000 
366.000000	108.382000 
366.500000	109.750000 
367.000000	110.021000 
367.500000	110.684000 
368.000000	110.115000 
368.500000	109.732000 
369.000000	110.298000 
369.500000	111.369000 
370.000000	110.711000 
370.500000	110.079000 
371.000000	110.361000 
371.500000	110.549000 
372.000000	110.948000 
372.500000	111.338000 
373.000000	110.893000 
373.500000	110.769000 
374.000000	111.440000 
374.500000	112.325000 
375.000000	110.636000 
375.500000	110.944000 
376.000000	112.258000 
376.500000	110.119000 
377.000000	111.985000 
377.500000	112.022000 
378.000000	112.707000 
378.500000	111.472000 
379.000000	112.158000 
379.500000	110.862000 
380.000000	110.990000 
380.500000	108.481000 
381.000000	110.401000 
381.500000	111.175000 
382.000000	109.910000 
382.500000	111.159000 
383.000000	110.066000 
383.500000	109.062000 
384.000000	110.046000 
384.500000	108.947000 
385.000000	110.332000 
385.500000	109.566000 
386.000000	109.844000 
386.500000	108.164000 
387.000000	107.623000 
387.500000	106.721000 
388.000000	106.125000 
388.500000	106.531000 
389.000000	106.570000 
389.500000	106.642000 
390.000000	105.625000 
390.500000	105.620000 
391.000000	107.876000 
391.500000	105.299000 
392.000000	105.946000 
392.500000	104.170000 
393.000000	105.501000 
393.500000	104.236000 
394.000000	105.604000 
394.500000	105.104000 
395.000000	104.611000 
395.500000	101.336000 
396.000000	102.873000 
396.500000	103.555000 
397.000000	100.741000 
397.500000	102.269000 
398.000000	102.426000 
398.500000	102.473000 
399.000000	103.046000 
399.500000	102.088000 
400.000000	99.686000  
400.500000	100.001000 
401.000000	100.343000 
401.500000	100.550000 
402.000000	99.995000  
402.500000	98.836000  
403.000000	99.630000  
403.500000	99.462999  
404.000000	99.267000  
404.500000	100.218000 
405.000000	100.400000 
405.500000	98.293000  
406.000000	96.587000  
406.500000	97.000000  
407.000000	98.313999  
407.500000	96.907000  
408.000000	95.973000  
408.500000	98.069999  
409.000000	96.436000  
409.500000	96.769000  
410.000000	94.264000  
410.500000	94.528000  
411.000000	94.709999  
411.500000	94.950000  
412.000000	92.831000  
412.500000	91.680000  
413.000000	90.072999  
413.500000	90.982000  
414.000000	90.194999  
414.500000	90.305000  
415.000000	89.967000  
415.500000	88.102000  
416.000000	90.108999  
416.500000	87.914000  
417.000000	88.348000  
417.500000	86.215000  
418.000000	85.875000  
418.500000	85.084000  
419.000000	86.037000  
419.500000	85.084999  
420.000000	83.792000  
420.500000	82.261000  
421.000000	83.059000  
421.500000	82.459999  
422.000000	81.873000  
422.500000	82.205000  
423.000000	81.500000  
423.500000	79.831000  
424.000000	80.057000  
424.500000	80.245000  
425.000000	79.057000  
425.500000	78.637000  
426.000000	77.395000  
426.500000	79.361000  
427.000000	76.778000  
427.500000	74.175000  
428.000000	75.541000  
428.500000	74.391000  
429.000000	74.947000  
429.500000	73.081000  
430.000000	72.894000  
430.500000	74.697000  
431.000000	74.166000  
431.500000	73.367000  
432.000000	72.040000  
432.500000	69.590000  
433.000000	70.837000  
433.500000	69.318000  
434.000000	70.016000  
434.500000	68.803000  
435.000000	69.727000  
435.500000	69.550000  
436.000000	68.514000  
436.500000	68.159000  
437.000000	67.450999  
437.500000	67.968999  
438.000000	67.373000  
438.500000	66.921000  
439.000000	66.950000  
439.500000	67.599000  
440.000000	66.553000  
440.500000	66.467000  
441.000000	64.538000  
441.500000	64.648000  
442.000000	65.093999  
442.500000	64.784000  
443.000000	64.733999  
443.500000	64.044000  
444.000000	63.486000  
444.500000	64.334999  
445.000000	63.152000  
445.500000	60.818000  
446.000000	60.572000  
446.500000	62.229000  
447.000000	59.934000  
447.500000	59.737000  
448.000000	61.526000  
448.500000	59.731000  
449.000000	59.763000  
449.500000	59.784000  
450.000000	58.366000  
450.500000	57.354000  
451.000000	58.493000  
451.500000	57.265000  
452.000000	57.662000  
452.500000	57.194000  
453.000000	56.013000  
453.500000	56.450000  
454.000000	55.528000  
454.500000	56.519000  
455.000000	53.559000  
455.500000	52.968000  
456.000000	53.199000  
456.500000	52.157000  
457.000000	51.436000  
457.500000	51.936000  
458.000000	52.502000  
458.500000	50.677000  
459.000000	49.916000  
459.500000	49.499000  
460.000000	50.835000  
460.500000	49.355000  
461.000000	49.456000  
461.500000	48.086000  
462.000000	47.080000  
462.500000	48.527000  
463.000000	48.888000  
463.500000	47.756000  
464.000000	47.245000  
464.500000	45.607000  
465.000000	44.961000  
465.500000	45.711000  
466.000000	44.446000  
466.500000	44.617000  
467.000000	44.471000  
467.500000	44.038000  
468.000000	44.712000  
468.500000	43.698000  
469.000000	42.446000  
469.500000	42.935000  
470.000000	42.083000  
470.500000	41.179000  
471.000000	41.206000  
471.500000	40.922000  
472.000000	41.517000  
472.500000	41.205000  
473.000000	40.044000  
473.500000	40.050000  
474.000000	38.824000  
474.500000	39.137000  
475.000000	38.645000  
475.500000	38.214000  
476.000000	37.223000  
476.500000	37.030000  
477.000000	38.878000  
477.500000	37.991000  
478.000000	38.631000  
478.500000	36.929000  
479.000000	37.619000  
479.500000	36.416000  
480.000000	37.063000  
480.500000	34.795000  
481.000000	35.464000  
481.500000	35.197000  
482.000000	35.185000  
482.500000	34.400000  
483.000000	34.346000  
483.500000	34.111000  
484.000000	33.875000  
484.500000	33.557000  
485.000000	33.512000  
485.500000	34.045000  
486.000000	32.866000  
486.500000	31.176000  
487.000000	31.109000  
487.500000	31.051000  
488.000000	31.545000  
488.500000	31.970000  
489.000000	31.362000  
489.500000	31.389000  
490.000000	30.748000  
490.500000	31.049000  
491.000000	29.961000  
491.500000	29.199000  
492.000000	29.181000  
492.500000	28.346000  
493.000000	29.166000  
493.500000	29.715000  
494.000000	28.891000  
494.500000	28.637000  
495.000000	28.364000  
495.500000	27.498000  
496.000000	26.999000  
496.500000	27.545000  
497.000000	26.937000  
497.500000	26.381000  
498.000000	26.982000  
498.500000	26.630000  
499.000000	25.097000  
499.500000	23.937000  
500.000000	24.713000  
500.500000	25.180000  
501.000000	24.641000  
501.500000	25.086000  
502.000000	24.748000  
502.500000	24.060000  
503.000000	22.861000  
503.500000	22.730000  
504.000000	22.409000  
504.500000	22.668000  
505.000000	22.281000  
505.500000	22.206000  
506.000000	21.869000  
506.500000	21.753000  
507.000000	21.737000  
507.500000	21.073000  
508.000000	19.978000  
508.500000	21.270000  
509.000000	21.341000  
509.500000	20.700000  
510.000000	19.735000  
510.500000	19.425000  
511.000000	19.955000  
511.500000	19.429000  
512.000000	19.897000  
512.500000	19.934000  
513.000000	19.349000  
513.500000	19.468000  
514.000000	19.034000  
514.500000	18.805000  
515.000000	18.457000  
515.500000	18.633000  
516.000000	18.795000  
516.500000	18.672000  
517.000000	17.411000  
517.500000	17.290000  
518.000000	17.817000  
518.500000	17.887000  
519.000000	18.100000  
519.500000	17.297000  
520.000000	17.126000  
520.500000	17.353000  
521.000000	17.387000  
521.500000	17.303000  
522.000000	16.984000  
522.500000	16.982000  
523.000000	17.072000  
523.500000	17.073000  
524.000000	15.874000  
524.500000	16.481000  
525.000000	15.870000  
525.500000	15.358000  
526.000000	14.765000  
526.500000	14.613000  
527.000000	14.519000  
527.500000	13.960000  
528.000000	14.364000  
528.500000	14.727000  
529.000000	13.943000  
529.500000	14.166000  
530.000000	13.761000  
530.500000	13.764000  
531.000000	13.267000  
531.500000	12.919000  
532.000000	12.983000  
532.500000	13.557000  
533.000000	13.179000  
533.500000	13.470000  
534.000000	13.261000  
534.500000	12.606000  
535.000000	12.704000  
535.500000	13.000000  
536.000000	13.109000  
536.500000	13.291000  
537.000000	12.325000  
537.500000	11.959000  
538.000000	11.402000  
538.500000	11.715000  
539.000000	11.758000  
539.500000	12.396000  
540.000000	12.193000  
540.500000	12.259000  
541.000000	11.956000  
541.500000	11.937000  
542.000000	11.939000  
542.500000	11.632000  
543.000000	11.259000  
543.500000	11.731000  
544.000000	10.865000  
544.500000	10.680000  
545.000000	10.575000  
545.500000	11.107000  
546.000000	11.020000  
546.500000	10.629000  
547.000000	10.535000  
547.500000	10.746000  
548.000000	10.105000  
548.500000	10.167000  

